# repro call number: 0
# mode: 2
# signal: 2
# stimulus file: /extra/setup/oel/stimuli/receptorInfo/gauss_st12_co200.dat
# carrier freq (kHz): 3.53553
# stimulus length (msec): 1000
# pause between stimuli (msec): 700
# length of ramp (usec): 1000
# desired firing rate (Hz): 100
# standard deviation (dB): 12
# cut-off frequency (Hz): 200
# repetition number: 0
# duration (msec): 1000
# intensity (dB): 100
9800
15100
18300
32400
37100
39800
44000
57100
60800
64700
70000
80200
88000
96900
118100
124100
127100
131900
136100
139300
156700
159300
162600
174000
190500
210500
236000
238700
243700
269500
282000
286600
292600
307600
318300
362600
365700
370200
373400
383200
386300
422900
428200
431600
448100
482900
492800
495700
505200
508100
518800
534000
549700
552700
565500
574100
584200
587000
593500
597000
600900
621000
625000
649600
654500
659800
662800
665700
689000
695100
698200
717100
720200
734400
740900
746300
751400
758500
795000
799200
818100
820800
823800
826900
852400
855700
874300
877100
880600
886000
892500
899900
903000
916700
933000
936000
950500
969600
973300
998400
1001300
1034900
1038400
1046400
1053300
1073600
1114800
1123500
1128800
1142900
1150400
1177200
1180100
1196200
1199100
1208300
1220800
1238500
1249600
1271000
1276700
1290700
1296800
1301200
1304900
1314900
1327500
1345600
1350600
1354200
1363100
1366300
1381500
1386400
1396100
1411600
1416000
1419400
1424300
1454600
1460400
1477800
1482400
1502000
1507700
1512200
1533800
1550900
1564800
1569700
1584400
1604500
1607900
1614000
1618300
1630900
1635300
1641800
1650100
1655100
1658600
1692700
1697700
1703900
1716500
1722800
1741100
1744400
1750800
1754000
1759200
1763400
1784700
1791400
1802400
1830600
1834800
1902900
1907300
1910200
1917500
1933600
1941000
1952700
1961900
1965500
1986700
1990000
1993800
2001400
2039600
2043400
2048900
2052400
2058600
2091600
2113100
2116100
2128800
2131900
2136700
2142100
2151500
2158600
2162200
2165700
2169000
2178900
2190600
2195100
2199400
2216500
2224900
2229700
2246500
2283100
2286100
2291800
2297900
2307200
2312800
2339500
2361000
2374800
2377900
2381800
2407900
2431700
2441500
2447200
2458300
2471500
2478400
2481800
2500100
2510500
2522900
2533600
2559200
2562400
2578600
2581900
2586300
2616400
2640700
2644900
2665700
2672400
2677100
2686000
2708000
2712900
2724500
2727500
2751700
2768200
2779800
2795300
2801400
2811600
2814800
2825500
2837300
2860100
2863100
2874900
2878000
2882300
2891900
2909900
2919200
2923000
2936600
2939600
2948600
2970000
2973100
2976400
2985500
2990700
2995400
3017000
3020000
3043400
3052100
3060100
3064800
3085700
3094200
3100400
3155000
3161400
3165900
3181200
3185600
3192000
3198500
3203600
3213600
3222700
3226000
3233200
3236700
3254000
3285000
3292100
3296100
3300200
3304000
3310800
3318400
3321700
3331500
3339300
3344700
3359300
3363000
3370400
3381000
3385500
3396700
3415800
3420500
3426600
3459700
3480600
3484800
3489300
3512400
3518600
3526900
3550400
3561000
3564400
3572900
3582100
3594700
3607600
3621900
3626300
3636100
3647500
3661900
3672400
3678900
3696200
3724600
3728100
3747900
3756000
3759200
3762300
3771600
3808800
3815500
3822300
3848100
3857000
3860200
3877700
3883600
3887400
3912600
3943900
3949400
3969600
3977200
3980200
4008700
4044000
4051700
4055300
4064000
4078900
4081900
4104700
4108800
4134300
4145100
4151600
4173900
4207600
4224100
4229200
4236500
4248400
4252200
4255400
4259300
4270800
4273800
4277200
4282400
4288000
4299300
4304100
4309100
4312800
4323600
4330400
4347700
4351000
4355800
4381600
4409400
4416200
4429300
4436800
4446400
4457600
4472900
4485500
4512500
4549800
4586500
4589900
4607500
4627400
4635600
4639200
4643800
4647400
4660100
4665200
4675900
4680300
4685900
4722200
4734200
4738400
4752600
4772800
4781900
4790300
4795500
4807400
4827300
4839800
4847000
4850900
4855000
4866700
4878800
4899100
4903100
4906600
4914400
4920400
4925000
4955900
4962200
4974200
4985000
5029800
5041400
5046800
5051600
5055200
5058800
5073900
5079200
5085800
5103200
5108500
5112800
5126200
5131400
5134700
5153700
5158000
5183200
5190100
5195300
5209600
5259200
5290100
5303400
5346400
5357200
5360400
5368700
5372300
5391100
5398900
5403800
5418600
5430100
5453400
5461600
5477500
5484400
5488800
5499800
5517500
5521900
5525500
5561300
5568000
5578900
5582500
5644000
5647500
5656900
5660600
5668600
5684400
5692100
5704400
5727100
5733400
5760500
5782300
5788000
5791400
5818100
5822100
5826100
5834300
5868300
5871600
5876300
5888300
5905000
5921300
5927900
5932000
5943700
5949700
5969400
5973100
5976700
6020900
6034300
6050400
6053400
6079400
6096400
6104800
6122100
6128100
6134700
6138300
6143100
6153100
6157000
6181000
6191300
6195500
6199000
6212200
6217400
6227800
6231000
6236900
6242400
6256600
6266000
6285000
6288400
6295500
6335200
6341800
6361400
6374600
6410500
6416200
6429700
6433100
6446200
6455400
6458800
6466700
6473400
6481100
6484800
6508500
6514300
6538400
6541500
6544600
6557300
6566500
6576300
6581500
6585700
6597800
6607800
6619200
6628100
6632100
6635800
6640100
6648600
6659600
6698000
6727700
6733200
6782200
6803100
6814400
6818500
6832700
6845000
6854600
6876000
6887300
6899100
6905200
6926600
6930700
6945800
6948800
6957400
6973200
7002100
7008400
7011700
7016700
7036600
7040600
7045300
7063800
7067800
7083700
7087800
7091400
7095400
7121700
7133700
7138700
7190400
7197900
7210600
7224000
7232500
7236700
7255100
7260300
7288100
7296800
7306000
7323500
7331900
7350100
7353100
7375100
7389400
7416300
7420700
7431900
7436300
7441700
7445000
7471600
7475700
7497800
7503800
7509900
7514300
7518300
7538800
7593300
7606300
7610400
7617100
7624600
7645300
7648500
7652800
7662200
7673300
7680000
7688200
7703400
7713800
7720800
7732600
7753700
7767600
7774500
7789800
7793300
7796400
7801200
7807300
7812200
7857600
7878300
7881900
7895700
7899600
7904800
7908400
7916900
7926500
7946000
7977800
7981300
7985500
7994100
8015400
8029200
8040100
8085300
8118100
8129700
8155300
8158600
8161600
8172700
8208400
8223400
8258500
8280900
8284100
8288000
8313100
8319900
8325100
8360300
8387100
8391100
8396200
8428500
8433100
8445400
8457800
8468400
8484200
8494500
8508800
8511900
8524300
8540700
8555300
8559500
8604300
8610400
8613400
8619700
8647300
8678400
8689700
8699900
8715700
8720800
8737300
8759800
8763700
8771000
8822000
8825000
8830800
8845800
8867600
8875700
8882100
8895900
8921000
8929700
8933300
8945300
8948700
8952000
8955800
8960800
8968300
8974600
8994200
9020600
9038000
9046300
9049700
9058700
9097300
9137400
9148900
9153900
9169300
9172300
9178400
9201300
9216100
9219900
9234000
9239500
9247000
9258800
9264900
9268400
9296200
9299400
9328300
9349700
9361300
9377600
9381400
9385200
9406800
9409800
9413500
9424800
9441200
9489100
9495600
9504700
9532300
9553700
9559400
9562800
9572300
9590300
9601200
9624800
9628200
9640000
9643600
9651800
9664500
9669400
9681200
9687000
9691700
9716300
9736500
9739900
9743100
9763600
9770900
9785500
9827400
9836300
9840500
9857200
9861100
9876800
9879900
9887900
9896700
9902400
9910100
9919600
9930000
9968700
9979300
9992700


