# repro call number: 0
# mode: 3
# signal: 1
# stimulus file: /extra/setup/oel/stimuli/receptorInfo/gauss_st6_co200.dat
# carrier freq (kHz): 5
# stimulus length (msec): 1000
# pause between stimuli (msec): 700
# length of ramp (usec): 1000
# desired firing rate (Hz): 100
# standard deviation (dB): 6
# cut-off frequency (Hz): 200
# repetition number: 0
# duration (msec): 1000
# intensity (dB): 90.8824
6900
9900
13100
16000
19600
24700
28300
32300
37400
40700
47100
51100
54500
60300
63900
68200
75200
80400
84400
87900
93200
105100
117900
128900
135300
138500
145900
149200
157100
172600
182000
185500
189200
198100
201800
209900
213500
217200
220400
227400
232100
244000
256700
261600
269900
285700
299000
302400
305800
312100
334100
339300
344200
352700
362700
369100
373400
386800
397400
400800
405000
412600
418900
428000
437200
441400
451100
457100
461700
465400
474600
480400
484000
489000
496900
503700
515100
520600
530100
548000
555300
558800
564600
582000
585800
591100
606600
612000
615700
626000
631100
634800
659400
668800
672800
676400
683100
690200
693900
704900
712900
717700
728500
741300
745000
750000
759500
770500
791200
794900
802000
813300
830100
836000
849100
853000
858400
865500
869700
886200
893900
901000
905200
920000
929300
937700
958700
962800
968400
973300
979800
1003000
1008400
1024800
1030900
1041400
1056300
1066500
1072800
1080400
1088700
1096100
1115100
1126600
1136700
1143900
1152500
1160000
1176700
1185600
1192200
1199000
1211400
1224800
1235000
1240800
1245400
1252400
1257300
1268800
1274900
1286100
1291400
1297100
1304600
1312600
1339400
1345000
1360300
1365800
1379200
1390000
1394500
1400300
1406500
1412900
1420600
1431600
1451400
1466700
1478000
1488000
1500400
1531800
1543100
1547700
1552300
1582600
1593200
1610900
1617900
1628100
1636100
1640700
1657700
1662400
1672200
1679300
1683900
1693000
1698600
1705800
1716300
1722900
1734300
1754200
1771300
1780800
1786900
1801900
1815200
1827100
1834600
1841000
1856800
1871000
1878100
1886700
1892300
1900200
1905300
1915400
1935300
1950600
1961200
1967200
1972500
2002500
2016600
2031900
2048600
2054100
2068200
2074100
2083500
2100400
2105800
2111000
2116300
2135800
2163100
2172200
2182700
2194400
2212800
2236400
2244300
2257600
2267200
2278200
2289900
2295700
2303000
2313700
2319100
2327600
2333400
2342400
2347800
2371900
2377400
2384000
2391700
2401900
2412500
2424700
2435200
2442000
2454500
2460600
2482200
2493300
2512000
2521100
2528300
2546800
2563300
2573900
2580100
2589200
2595300
2601200
2609200
2625400
2640900
2650400
2659200
2672500
2678600
2693900
2726100
2740600
2750700
2756300
2770000
2776400
2786300
2797200
2810200
2818700
2825400
2833400
2843200
2849500
2860700
2870000
2879300
2887000
2897900
2906000
2915700
2931900
2937900
2947900
2957900
2969100
2983200
2989400
2998300
3015100
3027100
3039900
3056300
3063300
3090400
3103500
3114300
3135200
3164500
3179800
3188500
3201300
3213200
3230500
3236700
3248200
3261800
3272200
3279400
3286100
3297100
3307500
3339100
3351900
3360300
3376300
3384800
3393200
3400300
3424000
3431400
3451700
3471500
3477400
3483400
3494700
3507700
3514200
3538800
3554600
3571700
3580300
3588800
3596900
3610000
3620900
3643800
3650600
3662300
3674000
3682900
3713000
3724700
3746400
3756700
3768900
3785700
3794100
3804400
3821100
3835400
3844900
3861500
3879300
3887900
3900700
3916800
3932500
3948600
3957300
3970900
3987200
4001800
4012600
4045200
4052200
4059700
4073900
4085500
4098300
4105600
4123700
4132900
4164000
4171300
4177700
4188100
4205000
4218000
4225000
4235000
4251400
4263600
4283100
4298700
4305300
4315900
4323500
4332700
4349200
4372400
4389400
4401900
4408500
4426300
4447700
4455300
4466100
4476900
4486200
4503400
4524300
4534500
4558800
4565600
4589400
4600200
4612200
4641500
4651100
4665200
4673600
4686000
4708000
4714800
4729800
4741100
4749700
4756400
4792300
4803800
4810100
4823800
4835300
4850500
4873400
4883400
4889700
4901500
4909500
4926000
4934700
4968700
4982400
4989000
4995900
5002900
5024000
5034100
5059000
5074800
5088100
5112800
5138800
5145900
5157000
5167100
5174600
5183500
5207000
5213500
5225000
5243500
5256600
5265800
5277300
5287300
5295800
5302600
5326300
5334400
5348900
5356100
5365100
5372500
5388000
5396700
5421600
5434100
5449800
5461200
5470800
5477300
5497600
5513800
5530100
5541800
5561600
5569600
5576800
5624000
5636700
5645400
5655100
5662500
5671600
5680900
5688500
5705600
5732100
5740100
5756500
5764300
5771600
5786900
5801800
5809400
5828400
5834500
5843400
5850500
5862700
5870100
5886300
5900100
5918600
5927800
5939500
5952100
5961900
5995000
6008700
6015900
6031600
6037900
6052500
6064100
6074100
6095800
6110000
6116800
6123200
6145500
6162500
6176000
6190300
6200000
6207200
6220800
6243700
6256700
6270200
6297800
6307800
6314800
6321900
6331600
6344800
6383100
6402000
6408800
6417000
6427400
6438000
6454500
6468100
6479300
6506000
6525900
6536100
6544500
6552000
6572400
6579000
6599400
6614600
6626200
6635500
6643500
6655800
6689300
6696600
6704900
6713000
6721500
6736500
6759100
6766400
6783300
6789400
6804400
6813900
6834100
6840800
6852700
6865400
6873100
6879500
6896400
6909600
6915900
6932900
6942100
6961800
6982400
6992200
7003700
7017300
7024000
7033700
7065400
7077400
7093100
7109500
7116400
7138400
7154000
7173600
7194300
7210700
7231400
7238000
7245100
7252100
7284200
7302300
7309500
7316000
7324900
7343100
7349400
7364000
7372900
7379100
7390700
7399700
7407200
7414300
7421100
7430100
7451400
7467000
7480700
7488000
7500600
7515800
7535500
7542500
7553800
7574600
7590100
7601800
7622000
7629800
7642400
7659500
7667900
7677300
7683800
7702100
7709100
7727200
7736900
7747500
7756200
7786800
7793200
7820200
7830700
7841000
7858600
7873300
7898600
7914300
7923800
7933600
7941100
7950200
7961300
7968800
7975800
7985300
7995700
8015500
8023400
8035600
8049500
8076200
8084000
8091500
8104000
8116100
8122600
8138900
8154300
8162100
8171800
8198400
8207500
8215400
8229700
8242900
8264100
8275600
8295100
8305900
8326100
8332600
8348000
8360600
8370400
8386900
8397600
8415500
8424600
8460000
8475700
8485600
8498900
8523600
8538300
8555400
8570000
8578900
8592300
8615500
8622200
8639200
8660000
8668300
8680700
8693700
8703200
8725800
8733900
8745800
8752800
8762900
8774700
8783800
8817300
8825200
8833500
8841800
8862200
8868700
8875600
8894000
8910300
8920200
8931400
8946900
8965100
8972000
8998100
9006300
9019800
9041100
9050300
9061900
9083200
9104400
9118000
9135700
9149800
9178800
9189100
9199100
9237000
9251200
9259300
9266700
9277100
9287800
9304300
9315100
9340700
9350900
9365100
9378900
9393100
9409400
9417000
9437600
9451700
9464100
9478500
9494300
9518700
9534300
9558700
9566200
9579600
9588700
9599700
9613800
9620300
9631000
9646600
9665900
9684500
9693200
9711400
9722200
9730900
9741800
9757200
9768100
9781100
9795600
9824000
9850500
9861100
9876300
9899600
9914000
9925000
9936000
9946700
9957100
9965200
9978700
9999900


