# repro call number: 0
# mode: 2
# signal: 2
# stimulus file: /extra/setup/oel/stimuli/receptorInfo/gauss_st3_co200.dat
# carrier freq (kHz): 3.5
# stimulus length (msec): 1000
# pause between stimuli (msec): 700
# length of ramp (usec): 1000
# desired firing rate (Hz): 100
# standard deviation (dB): 3
# cut-off frequency (Hz): 200
# repetition number: 0
# duration (msec): 1000
# intensity (dB): 56.4
9600
14600
19800
25800
31400
36800
44300
50800
56300
63300
73900
80000
85600
93000
100300
107900
113300
120100
131600
138600
149900
160000
168100
173300
185300
192900
200700
210100
216800
222900
232500
239500
247100
252900
261600
274100
280800
291200
297200
305000
310800
315900
324700
335000
341300
350500
361500
371700
380800
387400
393600
400900
406700
414800
425400
434600
450600
465200
476800
484500
493300
503900
510000
517900
528100
537800
549400
556700
563300
569200
576800
588300
594900
604000
611000
617100
623400
628900
637300
643400
649900
655900
661900
677300
695800
703600
714100
721200
734800
742400
750900
761200
769000
783900
789900
796700
804900
813400
820900
829000
835500
842900
849600
856900
869100
879100
888000
896000
910400
923500
931000
940800
954500
961700
967400
979000
990100
997700
1003800
1014900
1024300
1032200
1038900
1046800
1057300
1067200
1074100
1081400
1089500
1097000
1105700
1113600
1121500
1127600
1136400
1145000
1151100
1161200
1168500
1173800
1180400
1191200
1200900
1211400
1217100
1227600
1239900
1245400
1251100
1260900
1272000
1277700
1287600
1303800
1309300
1319600
1328800
1336700
1346900
1353800
1364600
1375900
1382400
1390100
1396000
1407000
1416500
1425200
1432400
1443700
1449900
1456200
1465300
1479600
1496300
1505800
1514900
1524200
1535300
1547900
1559900
1568100
1578800
1586500
1596500
1604200
1614300
1620600
1632900
1644400
1650600
1664100
1671700
1678300
1686000
1694700
1700900
1714800
1723000
1731000
1742300
1750800
1763800
1772900
1779100
1787600
1795400
1801300
1812600
1819400
1831500
1847300
1853800
1867700
1875000
1883600
1891800
1901900
1909700
1916500
1930900
1937000
1945300
1955600
1963000
1972000
1982400
1990300
2000000
2016700
2025800
2033300
2043600
2055500
2063300
2082900
2090200
2098200
2107800
2120900
2136000
2143500
2150400
2161500
2173900
2184000
2190400
2202000
2208200
2213900
2227300
2234000
2241500
2253200
2259700
2267500
2273200
2281900
2295900
2302300
2311500
2323100
2338700
2348200
2359000
2377800
2385900
2395600
2402000
2413200
2424600
2431300
2438500
2451000
2464600
2482100
2488600
2506500
2514800
2522700
2537100
2547400
2555000
2563800
2569800
2578900
2592100
2599400
2605600
2616500
2625600
2634300
2643800
2654900
2666000
2674800
2682000
2696100
2703100
2721100
2735700
2746700
2760000
2770900
2782900
2795500
2809800
2819500
2826600
2837200
2853900
2866600
2872400
2884500
2895000
2903900
2911500
2917500
2924200
2939600
2947400
2956900
2967800
2975700
2988300
2998100
3004600
3015000
3028700
3037600
3046300
3056300
3064300
3077100
3084800
3091700
3101300
3112000
3124800
3133700
3141200
3147800
3159100
3170500
3184600
3190600
3204300
3212400
3220400
3230900
3240100
3250300
3258000
3268800
3275000
3295000
3307500
3322100
3338000
3349800
3360800
3371700
3385300
3393900
3404100
3409800
3416100
3422500
3437000
3446700
3458300
3469400
3483400
3491000
3509300
3516900
3522700
3530600
3538500
3552800
3562300
3569900
3579900
3585900
3598000
3609300
3620300
3630800
3644300
3652900
3664800
3674700
3686900
3693500
3699700
3710600
3718300
3725200
3735200
3746100
3755000
3762600
3776000
3785100
3792700
3799800
3811400
3818500
3826300
3835300
3844100
3857700
3869200
3880400
3888400
3897700
3915100
3922100
3937500
3949200
3960600
3967600
3975200
3985800
3993500
4001500
4011700
4023700
4032700
4039200
4047700
4063400
4071500
4080700
4087500
4096700
4104600
4114200
4124400
4135400
4144100
4154200
4162900
4176700
4189400
4204900
4215600
4225100
4231200
4237500
4249300
4257400
4276200
4287000
4301200
4310200
4324200
4332300
4339100
4344600
4352500
4362600
4368600
4377300
4384200
4390800
4398800
4412700
4430600
4442200
4449700
4460100
4472700
4483500
4494100
4503400
4513900
4524900
4536100
4544000
4552700
4562800
4571600
4581400
4591600
4604800
4615000
4625500
4633300
4643600
4652500
4661500
4679500
4689700
4704300
4715600
4723000
4734200
4742800
4749500
4757200
4773300
4788400
4799500
4817900
4830600
4846200
4859800
4870100
4878400
4890600
4899300
4908800
4915400
4927400
4933800
4951700
4963400
4982300
4994800
5008000
5021500
5028200
5036900
5050400
5062300
5072300
5096500
5103300
5109000
5116100
5134100
5151000
5162400
5169800
5187300
5202800
5214900
5222400
5229300
5241600
5253300
5261200
5276000
5289600
5297000
5308700
5320100
5328200
5341600
5349400
5360200
5371600
5387100
5395900
5403800
5414500
5424100
5431900
5439300
5453100
5464300
5474900
5486200
5500300
5512200
5518200
5529700
5544800
5555400
5575200
5582800
5595900
5605000
5619500
5629100
5639300
5649800
5665300
5672100
5678600
5686000
5699000
5709700
5717200
5733500
5749400
5761400
5771400
5784100
5793100
5808700
5816200
5833500
5845500
5853900
5878700
5893500
5902400
5911200
5920700
5933500
5948800
5959000
5971200
5977800
5990300
5999400
6007200
6023500
6033900
6052600
6063300
6071000
6082000
6091700
6100800
6109200
6130200
6142700
6158000
6167500
6180200
6187000
6195500
6204200
6219700
6230000
6242100
6255100
6263200
6277300
6283900
6291000
6304300
6322300
6329700
6336700
6350000
6364700
6374500
6387600
6399100
6413000
6425200
6434000
6443400
6452900
6466500
6473900
6481000
6493400
6501100
6512600
6534000
6543500
6550700
6561800
6574600
6586200
6597400
6605100
6613600
6634900
6641700
6651500
6659800
6670200
6682400
6691600
6703900
6714200
6731000
6739400
6750200
6759600
6778400
6787200
6796600
6808200
6818300
6826800
6834000
6841500
6849000
6861800
6874000
6891200
6900400
6906700
6917200
6931400
6942400
6954500
6965000
6974400
6983800
6991400
7001700
7011600
7019600
7032200
7038700
7058400
7069800
7082700
7092500
7108300
7116300
7126300
7139400
7154100
7162600
7182800
7190400
7202400
7222000
7236000
7249500
7256200
7267100
7286700
7293000
7302000
7311700
7323300
7330700
7337000
7348400
7356100
7377100
7384900
7392800
7410500
7424900
7441600
7455300
7463600
7470300
7478800
7485900
7495700
7507100
7515500
7528500
7536300
7545400
7561500
7583700
7590900
7601700
7608300
7617200
7625300
7640900
7655300
7670600
7680000
7692100
7704700
7711200
7723300
7733400
7742500
7753900
7768400
7774200
7784100
7792000
7800800
7808100
7817900
7832500
7841500
7853600
7867000
7879700
7888800
7896200
7904800
7914400
7922800
7938800
7958400
7968500
7980600
7988200
7997000
8005000
8019400
8031800
8042400
8056100
8067300
8084300
8092500
8099400
8108300
8118900
8131700
8142400
8151400
8158800
8171000
8179800
8189100
8198000
8215000
8225800
8235100
8244500
8253700
8263600
8271300
8280500
8286500
8300600
8315600
8325000
8337800
8347900
8367500
8381100
8388900
8402500
8414700
8422800
8431700
8449900
8460800
8470600
8481400
8491300
8503600
8517500
8526900
8544200
8557700
8566700
8573300
8579100
8591800
8615800
8627100
8635700
8645800
8660700
8670500
8681300
8697100
8707600
8715900
8721500
8736800
8750700
8765100
8778300
8786300
8806100
8825600
8837300
8844800
8853000
8871100
8879500
8885900
8901800
8909000
8918500
8932800
8944200
8956400
8966400
8993500
9006900
9015200
9023600
9031300
9043800
9050900
9058600
9065100
9072200
9079600
9086000
9099900
9115100
9123400
9135000
9156000
9163800
9172100
9184400
9197700
9217800
9235000
9244200
9252000
9263400
9275600
9284600
9291500
9306600
9323100
9331400
9342100
9350500
9359300
9371700
9379700
9391000
9403100
9416500
9430300
9445700
9452300
9462100
9477900
9486200
9492100
9505100
9513700
9525100
9539400
9550500
9563500
9585200
9595900
9607200
9614800
9622900
9629400
9641800
9660900
9667800
9676800
9694000
9704300
9715300
9732200
9746800
9753800
9763100
9781400
9792900
9803100
9817100
9830500
9845800
9853900
9864300
9881500
9889200
9901400
9907400
9915900
9926300
9937400
9950800
9960700
9970100
9983400
9994200


