# repro call number: 0
# mode: 2
# signal: 2
# stimulus file: /extra/setup/oel/stimuli/receptorInfo/gauss_st12_co200.dat
# carrier freq (kHz): 3.5
# stimulus length (msec): 1000
# pause between stimuli (msec): 700
# length of ramp (usec): 1000
# desired firing rate (Hz): 100
# standard deviation (dB): 12
# cut-off frequency (Hz): 200
# repetition number: 0
# duration (msec): 1000
# intensity (dB): 100
7500
11700
15500
30800
36900
55900
60300
69300
79000
87900
116300
123800
128300
132700
137400
155100
159800
173200
188700
200500
209600
234400
238800
267800
281900
286700
292400
305900
325500
360900
368600
382200
405600
421400
427600
434900
446900
478300
482700
493400
504000
510100
531000
549300
564300
583000
594400
619300
647900
654000
660100
687800
694600
715900
720500
727500
745500
752200
782900
793400
798700
817300
844200
852000
873400
878500
884700
891400
899000
907200
931600
948600
958000
968300
997300
1025600
1034000
1044700
1066900
1074700
1108000
1114400
1127100
1142700
1173900
1195700
1207500
1219300
1225700
1230900
1248400
1269500
1276000
1289000
1297100
1313700
1340000
1345700
1360100
1381100
1387800
1395600
1406800
1423500
1439400
1452500
1476300
1481700
1492600
1501200
1507400
1527300
1533200
1549000
1563400
1574900
1583200
1603300
1612600
1618500
1630200
1649200
1655500
1672200
1690600
1697200
1702700
1715000
1722100
1740100
1751200
1757900
1783300
1801400
1824200
1830100
1836200
1852500
1861600
1906300
1911700
1917300
1932000
1939300
1951900
1962200
1985700
1992200
2000100
2030200
2039500
2048300
2089800
2111500
2127400
2137300
2150400
2156900
2164500
2177300
2188900
2196800
2207400
2214500
2224100
2244600
2273100
2282700
2291200
2306600
2312600
2337700
2358800
2372700
2400000
2407900
2428500
2439700
2447100
2457000
2470500
2478000
2498100
2508400
2521700
2532600
2540800
2549200
2558900
2576500
2614600
2636300
2644300
2656300
2664300
2671600
2678000
2706500
2713200
2723400
2750400
2766600
2778300
2789200
2795300
2802000
2810300
2824200
2836200
2858500
2864700
2872900
2891100
2912500
2918400
2935500
2947800
2968700
2976400
2984000
2994700
3016100
3025600
3042400
3051600
3058100
3063700
3082000
3093600
3099500
3125800
3153100
3164700
3173900
3181500
3196900
3203000
3212500
3222900
3233100
3252300
3270100
3283400
3290600
3296200
3309700
3317800
3330400
3337200
3343600
3358400
3370600
3380200
3386100
3395700
3414300
3420700
3426000
3442500
3457300
3475400
3481600
3487800
3511400
3518200
3525600
3540500
3550100
3560000
3571700
3581700
3593200
3605100
3620400
3636100
3646000
3661300
3672100
3678800
3694500
3707100
3722700
3728500
3745100
3755500
3770900
3801600
3807800
3814500
3821700
3847200
3855800
3876700
3885700
3901000
3911400
3942600
3967500
3976000
3994700
4007800
4029000
4042200
4051000
4063300
4077600
4102300
4113200
4132300
4144500
4152000
4172900
4183400
4205600
4222100
4228300
4235700
4246700
4270100
4281400
4287900
4297400
4304000
4309700
4321700
4329700
4345300
4356400
4366200
4380900
4407600
4415300
4428100
4444700
4456500
4471400
4484000
4510500
4542900
4549500
4574900
4585800
4606500
4625900
4634700
4658800
4665400
4676500
4684600
4707600
4723100
4733100
4751100
4770900
4781100
4790400
4806100
4826000
4838300
4846300
4853900
4865600
4877900
4899000
4920000
4929900
4955200
4961800
4973400
4983700
5028600
5039700
5046200
5064300
5073300
5084500
5101600
5108300
5125400
5152000
5182300
5189700
5196100
5208300
5240200
5252100
5258800
5286500
5300400
5345100
5356000
5367100
5389700
5397200
5403400
5417000
5428700
5450000
5460300
5476400
5484000
5500100
5507300
5518400
5537400
5561700
5567800
5577700
5597700
5619800
5642600
5655800
5678900
5691700
5704000
5715300
5727100
5757700
5781900
5812600
5834400
5866800
5887700
5903500
5919700
5942900
5950500
5968600
6018700
6032500
6048100
6078000
6086600
6095900
6102800
6120200
6128100
6134300
6142100
6151700
6180000
6188200
6196800
6211400
6226400
6241600
6255000
6265200
6283600
6294700
6332900
6340700
6359400
6373300
6382800
6390800
6408400
6415700
6428800
6446000
6454100
6465300
6472500
6480600
6486800
6506900
6514100
6537300
6543200
6565300
6575800
6596000
6605400
6617500
6627600
6648200
6658300
6681500
6696200
6713300
6725700
6733000
6744800
6767800
6781200
6801300
6812400
6831500
6860800
6871100
6885500
6897900
6904400
6925300
6932000
6944800
6954000
6971200
6993200
7001100
7008700
7015800
7035000
7062400
7079700
7087400
7093500
7107500
7120000
7136400
7148300
7169600
7184400
7196600
7209000
7223800
7232900
7253300
7259900
7278100
7287200
7295300
7305600
7321300
7330400
7348900
7373800
7387400
7414500
7421200
7430900
7438600
7470600
7495800
7508200
7538700
7565200
7581800
7592000
7606200
7615900
7624500
7644500
7652400
7661700
7671900
7686600
7702500
7713300
7720600
7730700
7752500
7766200
7772600
7783300
7789900
7800700
7856000
7876300
7894400
7903200
7914200
7925500
7937000
7945100
7976400
7992100
8007600
8015200
8027600
8045500
8056700
8083500
8093900
8116900
8125100
8141700
8154300
8172500
8192600
8206900
8221200
8256600
8273900
8280900
8311200
8324000
8339200
8373200
8385500
8392600
8427000
8442700
8457000
8467400
8479300
8494900
8507900
8522900
8533800
8553800
8560500
8575200
8588200
8598800
8609400
8618900
8646000
8673900
8683300
8698400
8713400
8719900
8735900
8757200
8769400
8778700
8785800
8813900
8822400
8835900
8844700
8866300
8875800
8894600
8919000
8928700
8942200
8961700
8975100
8991900
9019300
9025500
9037700
9045700
9060400
9095400
9135300
9148000
9168000
9176900
9197800
9209000
9215500
9232600
9239600
9247600
9257300
9263900
9271000
9294900
9326400
9348100
9366200
9376400
9400100
9406500
9423100
9438700
9464300
9486900
9494400
9503600
9516700
9526200
9551800
9558200
9566400
9589400
9599000
9623100
9637700
9650800
9663500
9676100
9714700
9734800
9762100
9769700
9784300
9807300
9815600
9825700
9834900
9853600
9859900
9875700
9887000
9895200
9903300
9910200
9918100
9929200
9961000
9967600
9978700
9985100


