# repro call number: 0
# mode: 2
# signal: 1
# stimulus file: /extra/setup/oel/stimuli/receptorInfo/gauss_st6_co200.dat
# carrier freq (kHz): 3.5
# stimulus length (msec): 1000
# pause between stimuli (msec): 700
# length of ramp (usec): 1000
# desired firing rate (Hz): 100
# standard deviation (dB): 6
# cut-off frequency (Hz): 200
# repetition number: 0
# duration (msec): 1000
# intensity (dB): 87.6
6700
10500
20200
25600
30700
38400
43600
48400
52700
61300
69100
79600
83600
87700
94400
104900
129300
136200
145600
149700
160100
172800
182300
190700
199700
204700
210500
214700
219200
229100
239600
256700
264400
270600
286400
299400
303700
313000
334700
339600
344900
353400
362900
369900
374400
386300
397800
402000
405900
414300
419600
428500
442400
456800
462300
469300
480300
490000
497100
505100
514900
529500
537700
548300
553300
564100
583100
588600
596400
606200
613100
626900
633000
653100
660300
671000
675900
683100
690800
705000
716900
721700
730500
740800
744900
759700
770900
791000
795100
802200
814600
823200
829500
835900
849900
858000
866000
883200
893600
904400
913200
925000
930500
937000
941400
958100
969000
980100
988700
1003600
1008700
1024700
1031000
1056300
1066300
1073500
1080700
1085200
1089700
1096300
1112400
1125600
1134500
1146200
1153300
1158800
1169800
1177200
1185500
1191500
1199300
1212500
1222400
1233800
1239900
1245700
1253800
1258300
1267900
1275600
1286200
1291600
1297400
1311800
1316500
1327700
1338300
1346000
1358400
1365700
1374700
1381300
1390700
1395100
1400800
1406200
1413000
1419900
1432200
1442400
1451800
1463900
1470700
1478800
1484000
1489300
1499900
1512400
1528600
1534400
1543900
1549700
1556700
1580300
1587800
1594300
1599100
1612000
1628500
1635600
1640600
1652900
1663000
1667700
1672700
1680800
1693500
1700700
1706300
1716900
1723100
1729500
1736900
1744000
1757200
1769200
1781100
1788300
1799000
1807400
1815500
1827700
1835200
1843900
1856500
1870300
1878200
1887500
1893800
1900500
1905900
1915200
1932300
1937100
1950200
1961100
1967500
1972400
1983800
1995400
2002600
2017000
2025500
2033300
2037800
2050300
2058100
2069100
2074500
2080500
2085500
2089800
2100800
2106400
2111800
2135600
2140800
2153800
2162200
2171600
2183100
2193900
2212100
2230500
2236900
2243900
2257800
2266800
2275700
2282000
2295100
2304100
2313000
2318300
2331800
2341100
2347500
2357700
2372300
2379400
2385100
2393000
2399000
2404400
2410400
2415300
2423200
2434800
2443000
2454000
2461200
2480700
2493200
2498900
2503600
2512300
2522400
2528500
2546500
2557200
2564000
2574700
2581800
2589900
2595800
2601200
2607500
2614800
2626300
2630900
2639300
2649800
2658200
2664600
2675100
2697500
2702700
2715200
2726900
2740300
2751000
2756700
2763400
2770100
2777300
2786400
2798200
2809700
2817800
2825300
2835800
2842400
2849700
2860300
2865700
2877700
2889100
2897800
2904400
2915000
2926200
2933200
2938800
2943200
2949200
2957900
2964200
2969800
2984100
2997000
3008100
3015500
3023100
3028200
3039000
3045500
3058800
3066300
3076100
3090700
3097900
3103900
3114900
3123000
3134600
3147500
3153700
3164300
3169700
3178500
3188800
3196500
3201900
3213700
3230400
3236800
3243400
3250200
3261800
3272000
3279400
3286600
3291800
3307700
3322200
3338800
3351500
3359600
3369400
3380300
3386500
3392400
3400000
3410000
3421300
3426900
3432700
3451200
3456900
3471000
3477700
3484400
3495200
3508100
3514200
3521700
3532100
3539700
3547300
3554800
3571200
3580700
3588200
3598100
3610000
3621700
3634100
3643500
3651900
3661600
3673900
3685200
3706300
3714500
3725100
3746300
3752000
3757000
3768300
3773400
3779800
3788500
3796100
3804500
3810300
3821100
3836700
3844700
3857500
3868300
3879200
3891500
3901200
3907400
3916300
3922700
3933400
3949900
3957600
3969700
3977100
3986900
4002200
4008000
4013700
4033700
4044900
4052700
4065200
4075100
4085900
4100100
4106500
4117700
4128200
4134600
4145000
4163200
4176700
4187900
4193500
4206900
4218700
4227500
4241700
4251500
4264900
4282700
4290900
4299600
4306900
4316300
4322800
4327900
4333900
4349800
4369300
4379800
4393600
4403000
4408700
4421300
4428400
4434400
4447900
4455300
4465400
4472000
4479500
4486800
4492400
4507800
4526300
4536900
4558000
4565700
4587300
4594000
4601500
4640900
4652500
4664800
4673700
4686300
4699300
4715500
4726200
4741500
4747100
4756800
4763500
4772900
4792400
4804600
4810500
4824200
4837400
4848500
4868000
4874300
4883900
4896300
4902500
4911300
4926900
4934600
4941200
4963200
4982300
4988900
4997800
5003500
5019600
5025300
5034200
5059600
5074400
5085800
5112900
5133000
5140400
5157800
5168200
5176000
5183900
5206600
5214400
5220900
5227700
5243500
5255900
5266200
5278600
5287500
5296200
5302700
5326800
5334500
5348900
5356000
5365500
5373100
5386700
5398100
5419300
5434900
5440600
5450000
5455800
5461500
5469900
5477800
5483900
5497900
5513700
5530600
5543400
5561100
5569600
5576400
5607600
5623800
5635100
5645600
5653000
5664000
5671600
5689000
5706200
5731300
5752900
5765100
5771700
5787500
5801000
5810800
5820800
5828500
5836000
5845200
5851500
5864700
5873200
5886500
5917000
5923200
5929400
5939500
5946000
5962200
5989600
6002000
6009600
6030900
6038000
6054000
6066900
6074800
6094500
6102600
6110200
6122800
6132300
6145100
6163000
6174200
6184900
6191400
6200500
6207200
6220900
6248200
6257000
6270700
6296600
6304200
6314300
6330500
6337600
6349800
6372600
6392100
6402500
6415600
6426300
6439000
6445500
6468300
6480300
6505800
6524400
6535800
6545700
6552700
6558500
6572000
6580000
6585400
6599700
6614400
6627600
6635800
6644300
6657100
6662900
6688000
6695700
6701800
6712800
6721300
6734500
6756500
6766600
6779000
6789300
6796400
6804500
6811600
6817200
6825500
6834600
6841200
6852700
6872400
6880000
6896300
6909800
6932700
6941600
6961800
6977900
6984100
6992900
7004800
7011100
7017600
7024000
7030800
7042900
7065200
7072200
7078100
7105400
7112300
7120900
7137200
7143800
7154000
7162400
7173300
7194100
7205700
7220000
7231200
7237600
7246000
7252700
7258600
7275100
7284900
7297300
7309600
7316800
7324200
7342800
7352800
7364300
7373200
7392800
7400200
7406800
7420700
7429900
7451300
7467800
7480300
7499900
7506100
7516100
7522300
7528200
7535700
7542700
7549400
7555000
7560800
7566400
7578800
7594200
7602500
7617300
7623200
7630300
7643100
7658500
7668600
7677900
7688800
7702200
7709700
7716000
7723700
7747600
7755400
7778900
7788200
7794400
7819200
7825100
7832400
7845400
7857400
7873900
7903400
7914100
7925100
7934400
7944700
7951500
7959600
7968800
7976000
7985800
8013000
8026000
8034700
8048100
8076400
8084200
8091100
8106400
8116600
8130600
8140700
8153000
8161700
8171800
8179300
8197600
8206900
8214900
8229900
8243500
8255600
8275700
8295300
8307000
8326000
8347500
8355100
8360800
8370400
8387800
8397100
8414600
8443700
8460800
8476000
8487300
8499000
8508800
8524400
8553600
8560300
8570800
8579500
8591700
8606700
8616600
8623400
8638800
8660500
8668600
8681200
8693800
8703200
8714400
8726100
8734500
8746100
8753100
8762300
8768900
8783600
8797500
8817800
8826400
8833000
8841400
8849000
8863100
8890400
8899100
8919700
8927300
8933200
8939100
8948200
8960400
8966700
8973000
8988800
8998900
9007000
9019900
9032200
9049700
9057900
9067200
9083000
9101700
9118100
9135800
9150600
9179900
9191200
9198700
9208500
9215600
9237000
9251300
9259600
9267700
9277000
9288100
9295400
9308800
9340700
9351100
9364200
9371100
9398900
9405300
9410800
9419000
9437600
9452600
9464600
9477800
9493300
9519100
9534200
9558200
9580100
9590500
9600500
9614000
9620800
9633200
9646200
9666200
9684200
9693400
9704700
9712200
9730700
9740800
9749200
9768500
9781100
9796200
9812500
9823600
9836700
9844900
9861900
9875400
9899800
9913500
9924600
9937100
9946900
9957500
9965400
9978300
10000100


