# repro call number: 0
# mode: 3
# signal: 1
# stimulus file: /extra/setup/oel/stimuli/receptorInfo/gauss_st6_co200.dat
# carrier freq (kHz): 5
# stimulus length (msec): 1000
# pause between stimuli (msec): 700
# length of ramp (usec): 1000
# desired firing rate (Hz): 100
# standard deviation (dB): 6
# cut-off frequency (Hz): 200
# repetition number: 0
# duration (msec): 1000
# intensity (dB): 65.6897
7000
9600
14300
19500
25100
28300
37900
46700
49800
52900
61700
68900
76800
81500
87100
93100
106600
129900
137300
146000
148700
157700
174800
181800
190200
199900
210500
216000
219400
226500
232100
238700
248900
259800
270000
285800
300200
306000
312300
328500
337600
344200
347500
354200
362400
369700
372600
385200
389100
397900
402900
418200
428500
436600
456200
460900
464200
469400
476000
480900
483800
489000
497500
504400
515500
530000
548900
555100
557900
564300
584600
590000
596300
610900
614800
618300
627100
630600
634500
660900
672500
675800
682700
689500
693400
705600
716700
720100
731900
741400
744400
755200
760600
770900
791500
794900
801800
805100
813900
823400
829700
836300
849900
858200
866100
870900
893800
904700
924700
930200
935500
939500
959200
962400
967800
973600
979800
1002800
1006900
1025300
1030900
1058000
1066200
1070400
1075400
1080700
1088100
1095200
1098300
1136500
1145400
1153500
1156600
1160300
1180200
1185600
1192400
1199200
1212300
1222900
1235200
1240300
1246200
1256800
1274700
1285800
1290800
1296900
1299800
1304300
1311600
1314900
1317900
1340700
1345800
1364800
1379700
1393700
1400600
1405000
1413700
1419500
1431000
1452300
1467300
1478600
1487800
1491400
1500800
1533000
1544500
1548500
1552300
1556800
1581200
1594100
1597400
1610000
1618000
1628600
1635200
1639900
1642700
1658800
1662600
1671900
1679800
1693000
1705800
1715600
1722100
1729100
1735500
1740400
1744400
1757800
1781800
1790400
1815200
1826900
1834500
1856300
1878200
1890200
1894600
1900300
1915500
1935500
1950400
1960900
1966000
1971700
2002900
2016800
2019700
2030400
2035000
2042000
2056600
2069200
2074600
2084100
2088000
2095500
2101100
2110700
2115500
2118500
2135600
2138600
2163100
2172400
2182400
2185200
2213400
2236400
2242600
2257300
2260900
2266900
2279600
2282500
2289100
2296000
2302900
2318800
2339900
2346900
2371900
2377300
2380500
2384200
2402100
2413200
2435100
2442000
2459900
2481200
2497900
2500900
2512200
2523000
2528400
2546700
2563600
2574300
2579300
2589200
2594300
2600400
2606600
2614000
2625100
2628300
2640100
2650300
2659500
2663400
2677600
2698200
2701400
2715400
2726100
2736000
2740400
2750300
2756600
2769600
2776200
2797900
2817000
2825100
2839100
2843300
2849200
2860700
2877400
2890500
2897700
2915100
2926500
2933400
2938400
2942000
2948000
2957600
2963700
2969100
2983800
2997800
3015300
3026500
3030100
3044000
3055300
3063500
3081900
3091100
3098100
3122600
3134500
3137900
3152600
3164900
3168400
3174900
3188800
3200700
3213200
3230700
3236200
3248200
3262000
3272200
3280700
3285800
3291200
3296800
3323000
3339700
3350600
3356100
3368900
3377100
3385500
3400400
3410300
3423200
3430700
3451400
3456700
3471200
3477200
3482800
3494700
3497500
3507900
3513600
3538800
3543900
3547900
3554300
3570800
3579800
3587800
3610700
3620600
3643200
3649300
3652500
3662300
3673300
3687000
3690000
3712700
3724400
3747000
3750400
3755900
3767000
3771700
3778800
3788300
3796000
3804100
3809000
3812100
3820600
3835700
3839100
3845100
3879400
3886300
3891900
3900500
3903600
3916000
3922000
3947700
3957400
3992700
4005400
4008700
4012600
4017800
4045700
4052500
4065100
4068200
4073200
4078300
4085300
4089000
4118100
4122900
4134100
4164600
4176400
4191800
4214000
4218600
4227100
4230100
4234900
4240100
4251500
4255400
4264800
4269000
4284300
4298500
4305400
4316000
4322200
4325900
4332500
4349900
4371300
4391400
4394300
4401900
4408300
4416800
4427400
4431700
4447300
4453900
4470600
4476300
4487300
4491200
4508300
4524400
4539600
4557600
4564600
4581600
4588500
4599900
4602800
4615600
4642000
4651300
4663300
4672800
4684800
4714600
4718600
4723100
4729300
4733100
4740600
4743600
4747200
4754800
4762000
4793100
4797300
4803100
4809400
4823600
4835800
4848500
4855500
4873300
4883300
4901300
4904400
4910100
4926500
4934700
4962100
4968600
4981600
4984400
4989600
5002400
5006000
5018300
5024300
5032900
5036100
5059200
5063800
5074900
5087900
5091000
5094400
5112600
5115700
5133000
5139100
5157600
5161100
5175100
5183000
5194600
5207100
5212100
5218500
5224500
5236700
5244800
5248300
5258900
5278400
5286100
5295300
5301500
5305100
5327100
5334200
5349900
5365300
5372100
5387100
5396300
5422400
5433700
5437600
5440800
5449600
5454500
5460100
5470700
5476900
5481300
5497500
5501000
5512600
5530200
5533100
5539900
5545400
5561200
5569100
5578200
5605600
5624500
5635300
5645600
5649200
5655500
5662500
5668200
5680100
5687800
5691200
5705400
5708400
5732800
5756400
5764400
5767300
5771600
5786600
5794200
5802800
5809200
5818500
5834600
5843900
5850100
5853100
5862400
5866400
5872900
5886200
5899500
5916900
5922800
5928000
5939300
5945800
5961600
5966300
6009000
6030600
6037600
6056500
6063900
6067100
6073800
6095600
6099900
6109000
6112900
6123100
6144600
6149900
6162800
6190000
6193300
6199400
6206400
6221100
6248500
6255600
6270000
6273600
6276600
6296700
6299900
6303900
6307600
6314200
6320000
6336300
6345400
6349400
6372600
6402400
6407800
6418500
6427500
6430800
6438300
6443600
6453900
6467700
6473000
6479100
6483900
6506300
6524200
6534700
6543100
6550500
6557800
6561500
6565400
6572600
6578500
6584200
6598100
6614300
6619400
6634900
6638500
6643600
6659900
6689200
6694600
6701100
6712500
6721300
6752600
6759600
6766600
6783100
6789400
6794600
6798000
6804400
6811800
6815900
6834200
6839800
6852300
6873000
6879100
6886200
6895900
6909100
6916000
6921600
6932500
6936600
6941800
6961600
6976800
6982400
6991100
7003300
7006700
7010300
7017700
7024400
7029100
7065600
7070300
7077100
7091900
7110200
7120000
7142600
7153200
7157600
7172900
7176200
7193700
7206800
7231600
7237800
7244900
7251200
7257700
7261100
7302000
7308800
7316400
7327500
7343100
7348500
7353700
7363800
7372600
7377200
7391200
7407400
7420700
7429100
7466200
7481400
7488800
7505300
7515500
7520700
7526200
7534800
7542000
7547100
7553000
7559700
7565200
7572700
7590000
7594300
7601300
7621800
7629700
7641600
7647700
7661600
7673200
7683100
7688500
7702200
7708100
7714800
7717900
7723600
7728600
7746500
7754700
7786900
7792600
7818500
7824100
7830700
7856000
7860800
7864700
7867600
7872600
7902700
7913300
7917000
7920500
7925000
7929600
7934600
7941400
7945500
7950500
7968700
7974700
7985300
8015000
8018300
8025500
8032800
8048100
8056700
8076500
8083300
8090700
8103500
8110000
8121200
8141200
8153800
8160800
8171600
8176300
8197900
8207000
8215300
8229700
8242700
8248300
8263500
8274800
8294700
8297700
8305600
8309800
8325000
8348300
8353300
8360600
8369600
8386800
8390400
8397100
8404400
8418400
8422900
8459300
8480000
8485300
8498400
8501400
8504500
8512800
8524800
8535700
8553300
8570400
8576400
8592100
8595400
8614400
8625600
8638200
8667000
8680300
8684100
8693100
8701700
8713800
8725500
8733000
8736000
8745400
8751900
8765800
8782100
8785100
8811900
8817900
8824100
8827100
8830400
8842100
8847100
8854800
8862200
8872500
8895100
8919200
8924800
8930300
8936200
8946900
8964600
8970600
8987800
8998400
9006400
9012100
9018900
9050100
9053500
9061600
9066700
9070900
9083100
9109400
9117800
9120800
9136100
9147000
9150600
9181500
9184300
9197300
9200400
9208100
9211200
9215700
9237000
9241400
9249900
9258000
9265600
9276800
9286700
9290400
9298900
9305100
9308800
9315500
9339700
9349400
9370400
9378100
9387300
9393600
9399000
9404900
9409200
9414300
9421300
9424500
9438200
9452100
9463700
9467100
9477900
9481400
9493100
9499600
9522500
9534000
9565400
9578800
9588800
9598600
9603000
9613300
9620000
9630400
9634600
9645800
9665700
9686600
9692100
9695300
9712500
9729800
9736900
9742800
9768000
9779800
9796400
9808700
9823800
9848900
9860800
9876300
9899900
9913000
9917100
9924100
9929300
9935100
9940900
9945800
9956800
9964900
9978600
9981800
9999600


