# repro call number: 0
# mode: 3
# signal: 2
# stimulus file: /extra/setup/oel/stimuli/receptorInfo/gauss_st6_co25.dat
# carrier freq (kHz): 5
# stimulus length (msec): 1000
# pause between stimuli (msec): 700
# length of ramp (usec): 1000
# desired firing rate (Hz): 100
# standard deviation (dB): 6
# cut-off frequency (Hz): 25
# repetition number: 0
# duration (msec): 1000
# intensity (dB): 91.1364
7700
10900
14000
18100
23900
29100
34700
38400
42200
45400
48900
52600
56700
60900
65500
70200
102900
109900
133800
137800
141700
145000
148300
151700
155500
159600
171100
184100
190900
195000
199500
204100
212500
217800
222800
227200
231800
235800
240800
246700
255300
298500
302800
306500
309900
313800
318200
323200
328100
344400
348300
351900
355300
359200
362900
367500
371700
376100
382900
388500
395500
401200
427300
433300
437800
441400
445100
448700
453700
475300
487500
496700
502800
509000
513900
518100
521800
525800
530700
558200
564500
571600
598700
603300
607400
611400
615200
618700
622500
626700
663500
667600
671200
674600
678200
681800
688700
692800
698100
722700
726900
731200
735800
741200
782400
791100
796300
800400
804700
808800
812600
817500
823800
888200
892600
896400
900200
904900
941200
946500
984700
989400
993900
999200
1035500
1042000
1049200
1055500
1060000
1063700
1067700
1071600
1076100
1125400
1130600
1136900
1142000
1210400
1215700
1220100
1224500
1228700
1255700
1261500
1266200
1270700
1274800
1278900
1288100
1319200
1323500
1327300
1334800
1338900
1343100
1380800
1384900
1392400
1400500
1423200
1428100
1432300
1436700
1444400
1484500
1488800
1495600
1502800
1507400
1512500
1538700
1546000
1591700
1663100
1667200
1673600
1679800
1689200
1752700
1757000
1761100
1767200
1774600
1778900
1783200
1790100
1794400
1801700
1806100
1810600
1815100
1825100
1845200
1910000
1915300
1919600
1963700
1972100
1995200
1999600
2006500
2018000
2051900
2059500
2066900
2072000
2079500
2086100
2092900
2100300
2131900
2136300
2142800
2147500
2176100
2181500
2189800
2195500
2248400
2253700
2261300
2268600
2277600
2314800
2325700
2335000
2354800
2361600
2374600
2383200
2388200
2395500
2441500
2451600
2456300
2461400
2470100
2479800
2485200
2491300
2497900
2526300
2533700
2538600
2548400
2579600
2588100
2634800
2641700
2647600
2661800
2667500
2672300
2684300
2706200
2712000
2717000
2722800
2758900
2764100
2771000
2777800
2785200
2790500
2886300
2915500
2921100
2926400
2933400
2990600
2995800
3000400
3031300
3035900
3042500
3049400
3096200
3101900
3106600
3114900
3120600
3152200
3156800
3163600
3168800
3213400
3247600
3277300
3282200
3286800
3291600
3298500
3312900
3320700
3327000
3332800
3367000
3371800
3376900
3382300
3388800
3395400
3431000
3435800
3443500
3452200
3486500
3524900
3532700
3539300
3546200
3558300
3567700
3572800
3582000
3620900
3628700
3636700
3645000
3650200
3697600
3704800
3738200
3743100
3750300
3757400
3769400
3787900
3796600
3804300
3810800
3844100
3849200
3854200
3864900
3874700
3916400
3923200
3929500
3942400
3950700
3956300
3962700
4008600
4072800
4077700
4085800
4096700
4133300
4138200
4145600
4159900
4167800
4176500
4187100
4193200
4201500
4207200
4213600
4233600
4242100
4255600
4263400
4271300
4276900
4312500
4321800
4329400
4338300
4364900
4447900
4455700
4463800
4472700
4483600
4528500
4533400
4540200
4547100
4554800
4578900
4603700
4610300
4617900
4623700
4635800
4681200
4686700
4694200
4704600
4766800
4771700
4779000
4791100
4819400
4824200
4858000
4862800
4869800
4877000
4952600
4989600
4995700
5001300
5037300
5041900
5048800
5056300
5064200
5099400
5104400
5109500
5142500
5147300
5152200
5160400
5196600
5201900
5244300
5252600
5257700
5291000
5299200
5306700
5311700
5379300
5384400
5392000
5399700
5408500
5413900
5420800
5460600
5470600
5481300
5488400
5495600
5508200
5517400
5542000
5548400
5556700
5591300
5596200
5603500
5610600
5618600
5626100
5634000
5639400
5644900
5676500
5682600
5688500
5695600
5702600
5708900
5716900
5725900
5731500
5761000
5766400
5774500
5784200
5807700
5815800
5825100
5833200
5842800
5854100
5885700
5891300
5899600
5907100
5912700
5922900
5934300
5977300
5985800
5993300
6002800
6035900
6041200
6048900
6056400
6063800
6073900
6104800
6146200
6181200
6188900
6196300
6203700
6215400
6252900
6258800
6266000
6295200
6300900
6309900
6318500
6325200
6340500
6347800
6384200
6389600
6399500
6427400
6432800
6444000
6528600
6535600
6569200
6574200
6582100
6592200
6615500
6621100
6628700
6636500
6645200
6651300
6661400
6672400
6698200
6703700
6711900
6719900
6726800
6751800
6760700
6768600
6774900
6850400
6855500
6868300
6896300
6901500
6910500
6916100
6927900
6945000
6950400
6959200
6999500
7007700
7048000
7054800
7066100
7074500
7091500
7101700
7108500
7118300
7127500
7134900
7175700
7181500
7189600
7197400
7204000
7244300
7250000
7258200
7266200
7273900
7286300
7346100
7351600
7360100
7368500
7377800
7464700
7469500
7475000
7483500
7497200
7549100
7557900
7562900
7569200
7607600
7613700
7622200
7635400
7650600
7655600
7660900
7704800
7710100
7715000
7746600
7754300
7761200
7768400
7800700
7809000
7852000
7857600
7864800
7870800
7881500
7896400
7928900
7934500
7943200
7951600
7956800
7987400
7995300
8002600
8010000
8042000
8046900
8054000
8061400
8070200
8077000
8082900
8090300
8107200
8113900
8123200
8131300
8161700
8168100
8177900
8187300
8235300
8241000
8248300
8286900
8298900
8306100
8311500
8319800
8334200
8340800
8346600
8354700
8405700
8412200
8443200
8450000
8462500
8470100
8477800
8486300
8523800
8531700
8539000
8544500
8590900
8596600
8636400
8648900
8656400
8690000
8742200
8747400
8755900
8799100
8804900
8811200
8843100
8848200
8879700
8884900
8893300
8901400
8912600
8965400
8973400
8980700
8988300
8993500
9008200
9013700
9022500
9027900
9071000
9080300
9109700
9114600
9122000
9129900
9153500
9161700
9169000
9174500
9202300
9214700
9256600
9261800
9271300
9280200
9289700
9298500
9324600
9336400
9344000
9349900
9408800
9417100
9424400
9431900
9439400
9447500
9491300
9496500
9530000
9535200
9543500
9575300
9587500
9592800
9613800
9621800
9629100
9657200
9664000
9675200
9704300
9713300
9735200
9740900
9748400
9756800
9766400
9781500
9789000
9795700
9825900
9831300
9841800
9897100
9903800
9914000
9921600
9944300
9992700
9999000


