# repro call number: 0
# mode: 2
# signal: 2
# stimulus file: /extra/setup/oel/stimuli/receptorInfo/gauss_st12_co200.dat
# carrier freq (kHz): 3.5
# stimulus length (msec): 1000
# pause between stimuli (msec): 700
# length of ramp (usec): 1000
# desired firing rate (Hz): 100
# standard deviation (dB): 12
# cut-off frequency (Hz): 200
# repetition number: 0
# duration (msec): 1000
# intensity (dB): 100
5800
8500
12300
15400
20900
29600
35200
38000
53900
56800
61900
67600
77300
85500
92400
112900
116100
122100
124800
129100
135500
153500
156400
159400
171600
186600
198100
207100
232600
235500
239900
265700
276100
280000
284200
289600
304300
314100
323400
331000
344100
354800
360000
363100
366400
369800
380400
409900
419800
425500
428600
444500
466400
476500
479400
489800
493100
502300
505300
515400
529000
545800
548800
555600
561900
581000
584100
590500
593900
608100
617300
620400
645700
651800
657700
660700
663900
683100
686600
691100
694500
697800
713800
716900
725200
732600
738100
743800
750100
756200
780900
790900
796500
813800
817000
820100
823000
840500
849100
871100
874200
877300
882800
889700
897200
900300
905300
910600
929300
932500
935400
946300
956200
966300
969400
978800
987100
996100
1000100
1023400
1031400
1034600
1043100
1046800
1050800
1064500
1070700
1088200
1100200
1106000
1111500
1121500
1126200
1139400
1147600
1167400
1173200
1176400
1179600
1193200
1196400
1206300
1209800
1217500
1223800
1228600
1246200
1267000
1273500
1287200
1290500
1298700
1302100
1311700
1324400
1338100
1342800
1349600
1358800
1362400
1365500
1378100
1381900
1393800
1403700
1409200
1414500
1417900
1421600
1436400
1450800
1453900
1456900
1474900
1479300
1491100
1499200
1505100
1510700
1522800
1527800
1531700
1547200
1561300
1567400
1573600
1581000
1584800
1601800
1606200
1611900
1616100
1628200
1632700
1638700
1642200
1647500
1653100
1664000
1689200
1695700
1700600
1704000
1713400
1719500
1738500
1741800
1748200
1751300
1756500
1781700
1785200
1788800
1799300
1821100
1827500
1832500
1850200
1854200
1860300
1885600
1898800
1904700
1908400
1914700
1929800
1937300
1949900
1959900
1983200
1986400
1990700
1997500
2020500
2028800
2036600
2040300
2046300
2054400
2087100
2091000
2109700
2124800
2127900
2133500
2137000
2148100
2155300
2162400
2165600
2175000
2187800
2191600
2195200
2206100
2212500
2222300
2227500
2243000
2272400
2280600
2284600
2289300
2294700
2305000
2310600
2336300
2356100
2363200
2371300
2374600
2378200
2404900
2420500
2427300
2437500
2441100
2455100
2458300
2468900
2475300
2479100
2496500
2508100
2519700
2531100
2539000
2556700
2559900
2574900
2578200
2582700
2612200
2634200
2642000
2654800
2662300
2669300
2675000
2681900
2704600
2710700
2721800
2725200
2742900
2748700
2764100
2776300
2787900
2792800
2799500
2808700
2812800
2822800
2833900
2857100
2860500
2870300
2875000
2889200
2899100
2905500
2910800
2916200
2919500
2933800
2936900
2946100
2966100
2969400
2974700
2981400
2987200
2993500
3013700
3024300
3040200
3050400
3056200
3060600
3080000
3091300
3097600
3122500
3130800
3151600
3159600
3163500
3172500
3178800
3182900
3186700
3195000
3201100
3210800
3220800
3228500
3232400
3235600
3250200
3268700
3281100
3290700
3298500
3307800
3316600
3329400
3335500
3341300
3346000
3356600
3360200
3367700
3378000
3382900
3394700
3412600
3418200
3423700
3446400
3455300
3463200
3475100
3479000
3485900
3510100
3515800
3523500
3538900
3547700
3558100
3561500
3569800
3579600
3591600
3604000
3618800
3622900
3633500
3644700
3658900
3669600
3676500
3693200
3706300
3720600
3724400
3743900
3753000
3756700
3759700
3768900
3804800
3812300
3819400
3844800
3853400
3856600
3874400
3881700
3885500
3900800
3909700
3923800
3940400
3944300
3966000
3974800
3978000
3986400
3993200
4005300
4025400
4040000
4048800
4052400
4061300
4075500
4078700
4100600
4111200
4123900
4131500
4142400
4150000
4164100
4170800
4179800
4187500
4205100
4219400
4226000
4234400
4242900
4246900
4252100
4256200
4267900
4271200
4279400
4285900
4296200
4302400
4307500
4320000
4328200
4332700
4344100
4348100
4353900
4364900
4378800
4405300
4413200
4426300
4433600
4442800
4453900
4469500
4482200
4508800
4526800
4541000
4546500
4573500
4583800
4587000
4605300
4624200
4631200
4636700
4641400
4644600
4657100
4660400
4663600
4674200
4682800
4717100
4720600
4731000
4734400
4749700
4769200
4778400
4787400
4793100
4804200
4824000
4836700
4844600
4852000
4863800
4875600
4896400
4900500
4903800
4907000
4911400
4917900
4927300
4951200
4958900
4971200
4981800
5016000
5026900
5038000
5044300
5049300
5052400
5056800
5062400
5070900
5074500
5082900
5099200
5105800
5122900
5128500
5131600
5150400
5155400
5180400
5187200
5194000
5206300
5226700
5233800
5249700
5256100
5273300
5284400
5288600
5297900
5328000
5334200
5343800
5354400
5361000
5365900
5387200
5395100
5406800
5415800
5426900
5448500
5458400
5461600
5474600
5481700
5486100
5492900
5498200
5517900
5521500
5535400
5551700
5556500
5565500
5575600
5579100
5595700
5617000
5631700
5641400
5653200
5656700
5664700
5676900
5682800
5689400
5700800
5712100
5718900
5724700
5745300
5755900
5778500
5785700
5789600
5810000
5815300
5818700
5821800
5827800
5832600
5855400
5865700
5869000
5874100
5885500
5896600
5902900
5916600
5919800
5925900
5941100
5946600
5966000
5971200
6011600
6017700
6030800
6040000
6046500
6049800
6053000
6076100
6080100
6094500
6101300
6119100
6126000
6131700
6140000
6149600
6153100
6177900
6185100
6190000
6194100
6198400
6209300
6214600
6224700
6228100
6233900
6240100
6253000
6260700
6282100
6292200
6330900
6337800
6357800
6366800
6374700
6387400
6407000
6413200
6427100
6430400
6442900
6451800
6455100
6458200
6463200
6469400
6478900
6483000
6505800
6511900
6534700
6538100
6541700
6545100
6550300
6563700
6573200
6579100
6582500
6593700
6603400
6614800
6625500
6630400
6636700
6645600
6656300
6669100
6680500
6694400
6711300
6724300
6730900
6742700
6765200
6779100
6798700
6810500
6815800
6829500
6843100
6851800
6868000
6874200
6883900
6893900
6902100
6921700
6925400
6930500
6942900
6951500
6969600
6986700
6992500
6999000
7006000
7009200
7014900
7033800
7037300
7041400
7060500
7077800
7084600
7087900
7106600
7118100
7129800
7135000
7146500
7166900
7182100
7187200
7194600
7197900
7207500
7220600
7230500
7246100
7251800
7257600
7276600
7284400
7292900
7302900
7320300
7328700
7335700
7346100
7349700
7371500
7385500
7402400
7408900
7414200
7428800
7438000
7441400
7467400
7472600
7494000
7506100
7511700
7535800
7549000
7556100
7579200
7589800
7604300
7613700
7622400
7640100
7643900
7650500
7659800
7670000
7677600
7684800
7688200
7700000
7707900
7711700
7718600
7728800
7739300
7751000
7765100
7786400
7790300
7793200
7797300
7804300
7843000
7854000
7857500
7874700
7878000
7893000
7901700
7905300
7911700
7923400
7933600
7943400
7974000
7978800
7990200
8006500
8012900
8025800
8031400
8043500
8054100
8069500
8081900
8114800
8118400
8123700
8127800
8144300
8152600
8157500
8160800
8171000
8175800
8204900
8208700
8219100
8254500
8272300
8278300
8281800
8309300
8321900
8336600
8357300
8371100
8383900
8388000
8392200
8405800
8425200
8428600
8441000
8454900
8465700
8476200
8481500
8492800
8506200
8509400
8520900
8537100
8552300
8558000
8573100
8585100
8596800
8606500
8610100
8617000
8643700
8660700
8671300
8677300
8683000
8687100
8696900
8712300
8717400
8733700
8737100
8755800
8759300
8776500
8794500
8811800
8819500
8823300
8828200
8834000
8842900
8846300
8860800
8865200
8878800
8892600
8917200
8927000
8933000
8939700
8944900
8948300
8951700
8958600
8964900
8971500
8990300
9017100
9020400
9034800
9044000
9054700
9063700
9093200
9133000
9145600
9150500
9158800
9166400
9169700
9175500
9194600
9199400
9205300
9213500
9230200
9236500
9244500
9255400
9262000
9268700
9293700
9298800
9324400
9336700
9346900
9358500
9364900
9374500
9379300
9382700
9397100
9403500
9407800
9421200
9437800
9442900
9460400
9467900
9485100
9493400
9501400
9505000
9523500
9529700
9550000
9557000
9568400
9571800
9588000
9597000
9609300
9621500
9624800
9636200
9640900
9648400
9652300
9660600
9667200
9674000
9684600
9712500
9716000
9733500
9738300
9760600
9767200
9781900
9804300
9814700
9824000
9827600
9833400
9850900
9857200
9874000
9877700
9885500
9893100
9896400
9906400
9916000
9927300
9958400
9964500
9976300
9982600
9989900


