# repro call number: 0
# mode: 2
# signal: 1
# stimulus file: /extra/setup/oel/stimuli/receptorInfo/gauss_st6_co200.dat
# carrier freq (kHz): 5
# stimulus length (msec): 1000
# pause between stimuli (msec): 700
# length of ramp (usec): 1000
# desired firing rate (Hz): 100
# standard deviation (dB): 6
# cut-off frequency (Hz): 200
# repetition number: 0
# duration (msec): 1000
# intensity (dB): 90.1786
6400
9200
12000
14600
18600
23300
26200
29500
37400
40500
43600
47300
51300
54800
60400
63500
67900
76000
80100
83100
86800
92500
95900
103600
107600
118600
128900
135400
139400
145800
148800
157400
172200
181500
184900
189000
197900
201600
205800
209600
213200
216400
219700
226500
232300
244500
256700
260000
268900
285500
299200
303000
306100
312600
328200
336100
342600
346100
352700
361700
365400
369200
373100
386800
397500
400500
404300
413300
418500
427800
431100
440700
456400
461700
465000
471100
475600
480200
483300
488600
497000
503700
515100
529500
537800
548800
555100
558200
564000
584200
589500
597200
606500
612100
615500
626000
629500
633400
654900
659200
670500
674900
678200
682800
689500
694700
705000
716600
720000
724300
731100
741000
744200
749600
759100
770100
778000
790600
793900
801000
804900
814000
823400
835400
842400
849400
852900
857800
861300
865900
885000
893300
900100
904300
913500
925500
929900
937600
940900
958600
961900
967200
972800
979200
989000
1003200
1008000
1024600
1030200
1056000
1066200
1069700
1075400
1080400
1083800
1088400
1095400
1113100
1126800
1131200
1135600
1143400
1148000
1152800
1156100
1159500
1176000
1185100
1189200
1193500
1199000
1212000
1223700
1235400
1240600
1244700
1248300
1253900
1257400
1268100
1274600
1285700
1290900
1296600
1305100
1311900
1315200
1318700
1338800
1344200
1356500
1364600
1379700
1384900
1390700
1394100
1399900
1404700
1412600
1416000
1420800
1431300
1446300
1451400
1466100
1478500
1481700
1487900
1491900
1511400
1517000
1532600
1543100
1547600
1552200
1555700
1581500
1588600
1593600
1597300
1616600
1628000
1635300
1639400
1642600
1658000
1662900
1671400
1678700
1684100
1693400
1700600
1705700
1709100
1721900
1733900
1738400
1743300
1757300
1780800
1786800
1799800
1806900
1814700
1826800
1834200
1842300
1856100
1863900
1878000
1890500
1899800
1914900
1935000
1950600
1961400
1966900
1971800
1996100
2001600
2016300
2019700
2033600
2037100
2048000
2056700
2067700
2073300
2083800
2087400
2090600
2100100
2104900
2110200
2115100
2126700
2135300
2139200
2162800
2171400
2175100
2182000
2186300
2194700
2212800
2235400
2242000
2247500
2257100
2266000
2269600
2278500
2282100
2288600
2295300
2303100
2313700
2318200
2326600
2346600
2371500
2377200
2383300
2391500
2401000
2404400
2413000
2425000
2434300
2442200
2454300
2460500
2481600
2493000
2497400
2500800
2511900
2522200
2527500
2547000
2559900
2564800
2574000
2579900
2584100
2589300
2594600
2600200
2608200
2614000
2625100
2628900
2639100
2649900
2658300
2663400
2675300
2691900
2698400
2702700
2715300
2725100
2740000
2750900
2756200
2761400
2769300
2776300
2790400
2797600
2809500
2817100
2823900
2827700
2832800
2838900
2843200
2849600
2860500
2864700
2878300
2887200
2893000
2897300
2904700
2914900
2927200
2933000
2937600
2941000
2947900
2957000
2960800
2964800
2969700
2983400
2996600
3004200
3014800
3027100
3041300
3056400
3063200
3068000
3090200
3093700
3103000
3114200
3122500
3135100
3139400
3152800
3164300
3167800
3178100
3188300
3199900
3212900
3216400
3230200
3236000
3243300
3249200
3262000
3271300
3278500
3286100
3290800
3296700
3322800
3338800
3351000
3355600
3361200
3368500
3376100
3385000
3391500
3398600
3402800
3409600
3423500
3430700
3438100
3450900
3456300
3470200
3477000
3482800
3489800
3494700
3498300
3507300
3515300
3520700
3538400
3544000
3548600
3554700
3572000
3579700
3588400
3596800
3610200
3620500
3642800
3649700
3653700
3661900
3674100
3685800
3689300
3713400
3724000
3746000
3751100
3756100
3761800
3768400
3772300
3784200
3789100
3795400
3803800
3809200
3820300
3836000
3839600
3844500
3860800
3878400
3890700
3900200
3903800
3915800
3921700
3926400
3932800
3948800
3956700
3963300
3974800
3986700
4001200
4006700
4011700
4045900
4058300
4065100
4068700
4075900
4084700
4089000
4098700
4104900
4121800
4132900
4145300
4168700
4177400
4187400
4192200
4204200
4217600
4224900
4229000
4234500
4240000
4250800
4264400
4282900
4295400
4299100
4305300
4315400
4322300
4326200
4332100
4348100
4372500
4392700
4396200
4401900
4407700
4415400
4426700
4431900
4443800
4448000
4454500
4464600
4470800
4475900
4486200
4491400
4503000
4508700
4524000
4535400
4539800
4544400
4558400
4565200
4577100
4587900
4594700
4600100
4612000
4641100
4651100
4664200
4672800
4688700
4708100
4715100
4718700
4729200
4732700
4741200
4745300
4753500
4761400
4778300
4791300
4795900
4803500
4809600
4814100
4824400
4834700
4852100
4872800
4878300
4883700
4889100
4898500
4902300
4909900
4925300
4933600
4968200
4981000
4984600
4990100
4996700
5002700
5017900
5024300
5033300
5037000
5058400
5062000
5073800
5085500
5089300
5093700
5097200
5112700
5116400
5133500
5139000
5145600
5157300
5161000
5167000
5174600
5183200
5206600
5212700
5218500
5224300
5228000
5243800
5247600
5257600
5266500
5278200
5286300
5294300
5301400
5306300
5326300
5333500
5348500
5356000
5364700
5368500
5373300
5386600
5397000
5407600
5421500
5433600
5438700
5442700
5452400
5456200
5460700
5470200
5476800
5482000
5497200
5513100
5519000
5529800
5533700
5544100
5561100
5568600
5575900
5579400
5592700
5635000
5644700
5648300
5654500
5662000
5671300
5680700
5689000
5693100
5705600
5710800
5731300
5745900
5756100
5763900
5771200
5786000
5794200
5802300
5809500
5813600
5828800
5834000
5842400
5849800
5853500
5862800
5868600
5873000
5885800
5900200
5917600
5922500
5927200
5931100
5938700
5945600
5962300
5992600
6008500
6030500
6037000
6052000
6057400
6064500
6068000
6074600
6095200
6098900
6110000
6121200
6145500
6150200
6162300
6172900
6189600
6193200
6200400
6206800
6210400
6217200
6221600
6248100
6255800
6269700
6274600
6278200
6297000
6301100
6306400
6313800
6330100
6336800
6345100
6349300
6382500
6402000
6408200
6416600
6426000
6430200
6438300
6444100
6455000
6467400
6472600
6478500
6505100
6524400
6535700
6543700
6550700
6556800
6560500
6564900
6571900
6578700
6584300
6598300
6614700
6619500
6630500
6635800
6642300
6655800
6660300
6678800
6688500
6699300
6711900
6720800
6734800
6752800
6760800
6766500
6783300
6789000
6794700
6799300
6803900
6811500
6815200
6833200
6840600
6852200
6863500
6872200
6879400
6886000
6895400
6899900
6909900
6915700
6931900
6935700
6940300
6943900
6962600
6982700
6991000
7002400
7009200
7017200
7023100
7028500
7033800
7064800
7070200
7077000
7093200
7110300
7119900
7130300
7153200
7158500
7167500
7173500
7178500
7188700
7194500
7205500
7231200
7238200
7245100
7251500
7257100
7261500
7280200
7302000
7315100
7323100
7326900
7337000
7342500
7348900
7353300
7363400
7372900
7378700
7390200
7398300
7408100
7420200
7424600
7450800
7462500
7467200
7477500
7482000
7488300
7499800
7504500
7515900
7521100
7526800
7534700
7541900
7546600
7553200
7559800
7565400
7573300
7578700
7593200
7601800
7621700
7630100
7642000
7661600
7668000
7682400
7688800
7701600
7708300
7714900
7718800
7724600
7729100
7748200
7754600
7782400
7787300
7793100
7823300
7829700
7834900
7860500
7864200
7867700
7873100
7899000
7903500
7909500
7914100
7918300
7923100
7934200
7941300
7946000
7954000
7967700
7974800
7984200
7988200
8015800
8022700
8026400
8046800
8054300
8076000
8082700
8090100
8107500
8118200
8122800
8129800
8138700
8143200
8152900
8160900
8171300
8176700
8196900
8207500
8214700
8229900
8243000
8248000
8263300
8274700
8294800
8298600
8304700
8309300
8313200
8325900
8332300
8348800
8359600
8369400
8387000
8390600
8396600
8417900
8423300
8459900
8479200
8484600
8488200
8498600
8502200
8506100
8524500
8537900
8555600
8560200
8570000
8576800
8592200
8597900
8614200
8621200
8626300
8639300
8659100
8667700
8681100
8693500
8702100
8706900
8725100
8732900
8745300
8751700
8761800
8772800
8782800
8816600
8824800
8828400
8832700
8841500
8853800
8862400
8869200
8873900
8893500
8899300
8919900
8925700
8930400
8937000
8946200
8964200
8971600
8998400
9005400
9009200
9019600
9040600
9049800
9055600
9064200
9069300
9073000
9083000
9108500
9117900
9122200
9177900
9182300
9196400
9200400
9208000
9211800
9215900
9236400
9240500
9250500
9259200
9265900
9276300
9287400
9293500
9303800
9308900
9313100
9339800
9349600
9370100
9377000
9393400
9398200
9408700
9416800
9422800
9436800
9451800
9463100
9466700
9477900
9482100
9494700
9517400
9534300
9557900
9564900
9579300
9589400
9599200
9613400
9619600
9630400
9634800
9645800
9666300
9684200
9688800
9694100
9712800
9730200
9740600
9767900
9780400
9793200
9797100
9823600
9834900
9848700
9860700
9875500
9882700
9900200
9913100
9917800
9924600
9929400
9936700
9945900
9956600
9964800
9978100
9981700
9999100
10003500


