# repro call number: 0
# mode: 3
# signal: 2
# stimulus file: /extra/setup/oel/stimuli/receptorInfo/gauss_st6_co25.dat
# carrier freq (kHz): 3
# stimulus length (msec): 1000
# pause between stimuli (msec): 700
# length of ramp (usec): 1000
# desired firing rate (Hz): 100
# standard deviation (dB): 6
# cut-off frequency (Hz): 25
# repetition number: 0
# duration (msec): 1000
# intensity (dB): 71.9318
6700
9100
11900
20100
31200
36300
39100
42300
47300
51500
54200
57400
62500
69000
134500
137600
140300
142600
144800
147100
149500
152000
159200
185000
189800
193700
197900
200500
210200
219400
224500
229200
232200
235100
238200
242200
247200
296400
302500
305100
307500
309900
312300
314800
317400
320600
342600
346400
350000
353300
355900
358500
360900
363700
366900
370100
379200
395000
430400
433800
436300
438900
441300
443900
447000
450300
486400
490200
499700
503100
506700
510800
513500
515900
518500
521400
526100
562700
566200
575500
601600
605600
608400
610800
613400
616100
618700
621300
623900
663700
666100
668400
670900
673500
675800
678300
680800
683400
685900
688500
692300
722900
726800
730700
733600
737300
782400
789300
796200
800200
803200
806300
809900
812300
814900
890400
893100
895600
898900
903500
938900
946000
991200
993700
1046400
1049400
1054100
1057800
1061900
1065400
1069300
1073100
1076300
1127800
1130900
1133800
1139200
1209000
1216500
1220700
1226400
1260000
1264100
1267500
1271400
1274800
1279200
1319900
1322900
1325900
1328400
1330800
1333900
1337900
1381800
1385100
1387900
1391900
1423500
1433600
1484600
1488200
1490600
1493200
1495600
1498300
1501000
1503400
1507100
1536600
1662800
1665500
1667900
1670300
1672600
1675100
1677500
1680000
1755200
1760000
1762600
1765200
1767500
1769900
1772300
1775100
1778200
1781400
1784500
1787600
1791400
1793900
1796800
1799500
1802200
1805000
1808800
1910300
1916500
1921600
1924000
1929400
1977200
1996100
1998800
2001100
2003600
2006400
2010000
2013700
2018700
2068800
2071700
2074400
2076900
2079300
2081700
2084100
2086600
2089100
2091500
2094000
2096600
2099700
2133600
2136500
2139100
2141500
2144000
2146800
2152000
2181700
2185100
2188100
2191500
2248200
2251900
2255200
2258000
2260600
2263100
2265800
2268300
2271400
2316000
2319600
2322100
2324500
2327900
2332200
2362200
2366300
2369500
2372300
2375400
2378600
2381800
2384900
2387400
2392200
2441500
2451100
2456600
2459900
2463000
2466500
2470000
2482200
2486100
2495000
2522400
2533500
2538300
2542500
2551300
2581200
2584300
2587400
2592400
2636600
2651200
2666700
2670000
2672600
2676600
2682300
2707900
2713900
2725600
2761700
2764300
2766800
2769300
2771900
2774300
2777100
2779700
2783100
2914700
2936600
2990900
2995100
3032100
3034900
3037500
3040500
3043500
3046900
3094000
3101100
3106000
3109900
3113000
3122100
3151800
3155000
3158000
3161200
3164400
3210100
3213700
3224900
3272500
3283800
3295600
3313700
3323800
3328400
3359900
3371100
3373500
3376700
3384000
3391700
3431300
3433900
3436400
3439100
3441800
3444400
3447000
3493200
3525000
3527500
3529900
3532200
3534900
3537600
3540300
3543600
3547500
3571600
3575400
3579400
3620200
3622700
3625000
3627400
3629900
3632400
3634900
3637500
3640600
3700500
3737100
3740700
3743300
3746200
3748900
3751500
3754200
3757200
3760200
3786500
3790000
3793500
3798500
3802100
3805400
3808500
3844200
3849500
3857200
3862900
3929100
3932500
3935200
3937700
3940400
3943200
3946300
3949700
3952700
3956700
4052600
4075500
4079400
4082400
4085100
4088000
4091600
4133500
4136900
4140500
4143700
4146500
4151500
4165300
4171400
4177400
4196700
4206800
4216800
4238100
4241400
4245600
4248400
4251400
4254400
4257400
4260400
4263000
4267300
4271200
4313200
4316700
4319500
4322700
4325400
4329400
4360400
4368000
4373100
4449800
4452800
4455300
4457700
4460000
4463700
4531000
4533900
4536300
4538700
4541100
4543500
4545900
4548500
4551500
4613500
4626500
4656900
4682200
4686300
4689300
4691800
4696400
4699900
4766900
4771300
4774000
4776400
4778700
4781100
4816000
4828800
4857300
4860300
4862700
4865100
4867400
4870100
4873000
4878900
4950700
4993600
5003800
5039500
5042300
5045700
5048300
5050900
5053400
5055800
5058700
5102800
5106300
5109100
5112100
5144800
5147900
5151100
5154000
5157500
5198900
5202000
5245400
5249600
5252800
5257000
5287500
5291300
5294100
5296800
5299400
5302600
5307200
5380800
5383500
5386100
5388500
5391300
5394100
5396900
5399800
5406000
5465100
5469700
5473500
5491800
5495400
5499600
5503300
5505800
5508700
5511600
5541600
5547400
5591400
5594800
5598000
5601200
5603700
5606200
5609400
5612300
5615200
5618000
5620700
5623600
5626600
5629400
5632800
5635900
5678000
5682300
5685400
5691400
5708300
5711600
5715300
5718300
5721100
5723700
5762000
5766100
5769300
5772000
5775300
5781700
5808300
5819500
5824500
5829300
5832400
5835000
5838400
5850500
5884800
5888200
5891700
5894700
5898100
5902500
5909500
5913000
5921900
5927900
5974100
5979600
5982600
5985600
5988200
5990700
5993400
6038800
6041600
6044200
6046800
6049200
6051700
6054100
6057000
6060000
6063400
6069300
6150600
6175100
6180200
6183100
6185900
6188400
6190900
6193400
6195800
6198700
6201600
6206500
6254800
6261800
6296400
6299400
6302100
6304500
6307500
6311400
6315700
6330900
6345100
6350400
6356300
6387300
6390700
6393600
6399600
6431800
6435300
6440100
6532100
6568500
6574800
6577800
6580300
6583400
6586400
6589500
6618300
6622900
6625500
6628100
6630800
6633600
6636600
6639700
6642900
6645800
6650600
6657900
6666300
6670700
6702500
6705700
6708600
6711600
6714300
6716900
6754200
6756700
6759500
6762800
6765900
6772700
6854800
6859000
6900100
6903900
6906600
6909200
6916200
6943900
6946800
6951800
6956900
6961000
6994700
7012100
7052200
7060000
7065400
7069600
7099700
7108000
7111800
7116500
7120500
7123800
7181700
7184800
7187400
7191500
7194500
7198000
7249300
7252200
7255300
7258900
7261900
7264600
7269000
7271700
7274400
7277300
7282500
7352900
7356900
7359900
7362400
7365100
7368000
7370900
7461900
7467400
7470800
7476500
7480200
7486600
7544600
7552600
7555700
7558300
7561200
7607300
7620900
7642100
7655600
7698700
7706100
7745900
7748900
7751500
7754000
7756500
7759100
7761600
7764400
7768600
7797500
7809800
7855800
7864100
7868300
7897400
7906100
7922400
7933000
7936400
7939800
7943800
7947800
7950700
7954300
7988600
7991300
7993800
7996300
7998700
8001100
8003600
8006300
8009100
8041400
8045600
8049200
8051900
8054900
8058500
8061200
8063800
8068600
8074700
8110500
8113300
8116600
8119100
8121500
8124400
8127200
8130400
8134000
8166900
8169600
8172700
8176400
8179700
8185300
8236500
8240400
8243300
8246200
8249200
8288900
8293100
8295800
8298400
8300900
8303500
8306900
8320500
8343400
8346700
8349400
8353300
8407500
8410400
8416600
8421300
8437500
8446900
8452500
8455700
8458700
8461300
8464200
8467000
8470000
8472800
8476300
8479200
8482000
8485200
8488300
8525400
8528100
8530600
8533300
8536600
8539300
8604200
8633500
8638400
8641200
8644600
8648200
8691200
8741100
8746400
8749800
8755100
8793500
8804700
8809200
8840600
8844600
8849300
8852500
8883200
8885900
8888500
8891000
8894700
8899800
8964400
8967400
8969900
8972300
8974700
8977300
8979800
8982500
8985500
8989200
9010400
9015100
9017700
9023400
9069500
9077200
9111200
9113800
9116300
9118700
9121300
9123800
9126300
9129200
9153500
9156700
9159400
9161900
9164400
9167000
9169800
9202900
9206100
9208800
9211500
9214100
9263100
9270800
9274600
9278600
9281700
9284700
9288300
9292200
9295400
9301300
9325700
9328500
9330900
9333600
9336200
9338600
9341500
9344300
9409100
9411900
9414400
9416800
9419300
9422000
9424500
9427400
9430400
9433800
9436500
9439100
9442100
9445300
9449300
9491000
9529100
9531800
9534400
9536800
9539200
9542200
9573600
9577600
9580700
9583900
9588900
9614300
9617300
9620000
9622500
9625000
9627700
9630900
9664000
9705900
9709300
9712600
9717300
9728600
9738900
9741800
9744500
9747300
9749900
9752500
9755200
9762700
9793400
9825300
9828200
9832600
9841000
9890100
9905200
9910100
9942100
9988900
9994300
10002400


