# repro call number: 0
# mode: 3
# signal: 2
# stimulus file: /extra/setup/oel/stimuli/receptorInfo/gauss_st6_co25.dat
# carrier freq (kHz): 2.5
# stimulus length (msec): 1000
# pause between stimuli (msec): 700
# length of ramp (usec): 1000
# desired firing rate (Hz): 100
# standard deviation (dB): 6
# cut-off frequency (Hz): 25
# repetition number: 0
# duration (msec): 1000
# intensity (dB): 63.587
8300
10800
20800
37900
41000
44300
48900
52100
56500
62300
71100
136100
139200
142900
145900
149100
152200
157600
159200
186800
194900
199800
219900
225300
230000
234300
238000
242300
299500
302200
305100
308200
310900
314600
318900
322300
344200
348100
352100
355200
358100
361000
364500
368300
371400
378800
386600
396500
428700
432500
436800
440500
445100
448900
456300
482900
489900
491100
500200
505100
509900
514000
517600
521700
525600
552700
562800
565800
600400
604700
608800
612300
616300
619500
622600
626600
654800
664500
667400
670700
673400
675900
678600
681500
684700
687500
690400
694400
723100
726600
729900
733900
742700
779400
796500
800700
804100
807600
811000
815500
825800
848700
879300
888900
891800
895100
899700
947700
987200
991000
994800
1040600
1046300
1055200
1060000
1063700
1067400
1073100
1075300
1121600
1131100
1135200
1141000
1215500
1219600
1225100
1258700
1263200
1267400
1271600
1275100
1283200
1320200
1323800
1327800
1331200
1334200
1380100
1383700
1387500
1393700
1395500
1423900
1433200
1439700
1485800
1489300
1493000
1496700
1500800
1505400
1510800
1542700
1551700
1661000
1663800
1667100
1669800
1672600
1675100
1677900
1681400
1718900
1754200
1759000
1762200
1765700
1770300
1774400
1778500
1782800
1787200
1790900
1794100
1797400
1801400
1806400
1810500
1851400
1912900
1918900
1924700
1926500
1958500
1964300
1993000
1997300
2001200
2004700
2008400
2014700
2016000
2048600
2060700
2070200
2073600
2076700
2079700
2082400
2085100
2087900
2091400
2094700
2098000
2102000
2131600
2134700
2138000
2141100
2144500
2148600
2183100
2189000
2190600
2246600
2251900
2255900
2259100
2262000
2266500
2270300
2312500
2317200
2320300
2323700
2327400
2338200
2356200
2360800
2366900
2368500
2373200
2377400
2383000
2443800
2451300
2457400
2461900
2467300
2472800
2479500
2481000
2484600
2494500
2508800
2521500
2525500
2530600
2535500
2540900
2549000
2577100
2580700
2588700
2594400
2637400
2646400
2651300
2664000
2669800
2675200
2711900
2717100
2757200
2761300
2765800
2769000
2772400
2775900
2780900
2785400
2790600
2905800
2926300
2956300
2989100
2992900
3001200
3030700
3033800
3037800
3041600
3045500
3096800
3105500
3109800
3114800
3120400
3149400
3154900
3159000
3163700
3208500
3245000
3260100
3274200
3284800
3287800
3295900
3320200
3368200
3371300
3375500
3385100
3396600
3429900
3435600
3439000
3442600
3447500
3485100
3490000
3525100
3531100
3533700
3537000
3540100
3544200
3569500
3573400
3620300
3623700
3626700
3629300
3632000
3635500
3639000
3648300
3701200
3706900
3737900
3742100
3745200
3748100
3751100
3754300
3759300
3791600
3794800
3799600
3806900
3844000
3848400
3856400
3860800
3872100
3917800
3926100
3929100
3934700
3939700
3943700
3948400
3952100
3959100
3997200
4076100
4080000
4084100
4087500
4133400
4137000
4142800
4144000
4146700
4156800
4171300
4185400
4197300
4203600
4214400
4228200
4239200
4243400
4247400
4252400
4257100
4261800
4266100
4273600
4313800
4317700
4321300
4325500
4330000
4358200
4364700
4447500
4452600
4455900
4460200
4464600
4529000
4533700
4536900
4540500
4543800
4547000
4551000
4555100
4595600
4606100
4611300
4619600
4654400
4681100
4686300
4692000
4693500
4696000
4699900
4764000
4771600
4774500
4781500
4815600
4821000
4856900
4860500
4863900
4866900
4870000
4873300
4945100
4986700
4997800
5035400
5040400
5045100
5048400
5051600
5056600
5058800
5102200
5106700
5117200
5143600
5147900
5153400
5155000
5159000
5198600
5202100
5206800
5243600
5248100
5255200
5263300
5289300
5292700
5296400
5300400
5303700
5381600
5385200
5388900
5392000
5395400
5402500
5406200
5412900
5423000
5490100
5496800
5498000
5499900
5504100
5508700
5514100
5515900
5542600
5550300
5588800
5593500
5597400
5601800
5604800
5609100
5612800
5616200
5620100
5624000
5627100
5631100
5635200
5642900
5677500
5685400
5696600
5706400
5712500
5716900
5720300
5724000
5761800
5765600
5770300
5775000
5787600
5807400
5814400
5815600
5820300
5824000
5828300
5834100
5835500
5842000
5850200
5886400
5891200
5895900
5900000
5904500
5909500
5914800
5922700
5932600
5977000
5980700
5984100
5987700
5991800
5996700
6035600
6039200
6042700
6045800
6048800
6051700
6055000
6058500
6063800
6067100
6113300
6137500
6175000
6181100
6184400
6187300
6190000
6193300
6196800
6200400
6205500
6253800
6260400
6262000
6295600
6299500
6303700
6308300
6312400
6342800
6348400
6356000
6380800
6387300
6392500
6396400
6432500
6438300
6530900
6537600
6538900
6570800
6574900
6578200
6582300
6591500
6617800
6621900
6626100
6630500
6634000
6637400
6640200
6645000
6648700
6654300
6655600
6661900
6673000
6694400
6705200
6708500
6712500
6715800
6723000
6749300
6754100
6758200
6764100
6765300
6769600
6851100
6855900
6892800
6898500
6902900
6909500
6916000
6917300
6939800
6944200
6949400
6953300
6958800
6997200
7002400
7046400
7051600
7058400
7062800
7087600
7098900
7104600
7110100
7116500
7117800
7121700
7131500
7172400
7178700
7180400
7184100
7188200
7193600
7197000
7245200
7250200
7254600
7258300
7263000
7266000
7270200
7275400
7276800
7347700
7351700
7355400
7359900
7363700
7367700
7372100
7457200
7463100
7471600
7475300
7480000
7485300
7545900
7552000
7553400
7558600
7609200
7616800
7643300
7650800
7660500
7706900
7746100
7751800
7754600
7757800
7760900
7764400
7797900
7803700
7851100
7855700
7865300
7877700
7893600
7914000
7926500
7932000
7939100
7943300
7949600
7954700
7984500
7988800
7991800
7994900
7997700
8000500
8003400
8007200
8042800
8046000
8049700
8053000
8057400
8060900
8065500
8076300
8081100
8103500
8109000
8116100
8120300
8123600
8127400
8133900
8160500
8165500
8169400
8175800
8179400
8183700
8191400
8232500
8238400
8241700
8245300
8287500
8291100
8294800
8297900
8300800
8305300
8338700
8343100
8347800
8351800
8356700
8358400
8405000
8422500
8440000
8445400
8453900
8458900
8463200
8466700
8469800
8473200
8476500
8481200
8485600
8524500
8528800
8532700
8536600
8544600
8589100
8594000
8633200
8638100
8642600
8649700
8689000
8740300
8745100
8751700
8759700
8799700
8803300
8839600
8845100
8852600
8857500
8882700
8886500
8891300
8893200
8898300
8903500
8904900
8962200
8966000
8969300
8972200
8975700
8978700
8981600
8985100
9011000
9014800
9021300
9068200
9077000
9108000
9112600
9115800
9118800
9122700
9126300
9150600
9156300
9159800
9162800
9165700
9169700
9201200
9208100
9212000
9216200
9254900
9259000
9265300
9273400
9278300
9283100
9288000
9293600
9295000
9298800
9320300
9325500
9329200
9331900
9334600
9337500
9340700
9391500
9403300
9406300
9410900
9415200
9418300
9422100
9425500
9428300
9433100
9436700
9440400
9443300
9449300
9490200
9493300
9499800
9525400
9531000
9534600
9538200
9542700
9574900
9578400
9582100
9586300
9615000
9618400
9621400
9624800
9628900
9633300
9658800
9663600
9667500
9701900
9706400
9713100
9716400
9735500
9740100
9746400
9749100
9753800
9758800
9770500
9781600
9790200
9801000
9821200
9832700
9893100
9906500
9913000
9914000
9918500
9927700
9951700
9984600
9994200
10002000


