# repro call number: 0
# mode: 3
# signal: 2
# stimulus file: /extra/setup/oel/stimuli/receptorInfo/gauss_st6_co25.dat
# carrier freq (kHz): 3.5
# stimulus length (msec): 1000
# pause between stimuli (msec): 700
# length of ramp (usec): 1000
# desired firing rate (Hz): 100
# standard deviation (dB): 6
# cut-off frequency (Hz): 25
# repetition number: 0
# duration (msec): 1000
# intensity (dB): 95.2381
4400
8700
28600
38900
41800
44100
50700
55100
59400
63400
132700
135800
138700
141200
143000
145400
148100
151600
181900
187800
191200
193600
214800
220000
223900
226200
229700
232700
236400
241700
296100
299300
301400
303600
306600
309500
311400
313400
317200
328800
342800
347600
349700
351700
354200
356100
358400
362400
365900
374400
387700
391800
427000
430300
434000
436300
438500
441000
443600
460500
478400
496300
501300
504600
509100
512100
516800
521100
526800
563000
600500
602500
604600
607300
609800
612100
615000
617300
622600
662000
664400
666400
668300
670200
672100
674000
676200
678700
681100
682900
684900
688100
717900
722800
725800
732900
782900
790500
794900
798500
801700
804000
806500
809600
814900
885900
888200
890500
893800
896400
899800
939100
944400
983600
986600
993500
1032600
1037900
1050400
1053500
1057400
1060700
1063100
1065200
1070500
1121300
1125400
1133100
1141800
1210200
1215200
1225300
1235300
1259400
1263200
1267000
1269700
1273000
1277300
1319700
1321700
1325200
1327600
1332000
1334200
1378200
1380700
1384100
1390100
1420500
1427500
1430900
1479100
1484700
1488100
1490100
1492400
1494400
1496900
1499800
1503400
1537000
1587400
1660900
1663100
1665200
1667100
1668800
1670600
1672500
1674800
1676800
1679600
1750900
1754700
1758300
1760500
1762800
1764900
1767700
1771300
1773500
1778200
1782500
1785200
1787500
1792400
1794600
1798300
1801200
1806100
1907200
1916200
1920600
1958900
1990800
1995300
1997800
1999800
2001700
2004300
2006500
2013200
2050800
2066000
2069700
2072000
2074600
2076500
2078300
2080100
2082000
2084200
2086200
2088500
2090400
2092300
2094400
2130200
2132600
2134700
2137600
2139700
2141900
2146300
2178300
2181700
2185000
2241400
2249500
2253000
2255600
2258000
2260900
2263400
2265400
2312400
2315900
2317700
2319800
2323300
2326600
2355500
2360400
2365700
2367800
2371900
2374900
2377700
2381500
2445100
2448800
2456200
2460800
2465200
2470800
2474400
2480700
2499900
2528400
2535800
2538900
2575300
2580400
2582700
2585400
2632700
2660000
2666300
2669100
2671400
2674900
2705600
2710700
2756300
2759700
2762400
2764500
2767100
2769300
2771500
2774300
2778100
2782000
2912700
2926100
2945200
2990200
2995700
3029200
3032400
3034600
3036900
3040600
3098600
3103400
3110100
3146400
3151500
3154100
3156300
3159000
3161700
3207900
3272400
3277200
3291400
3312900
3323800
3362300
3371700
3374600
3386600
3430300
3432800
3435400
3437500
3440000
3443200
3446200
3482200
3521400
3523800
3525800
3527500
3529500
3531400
3533300
3535400
3537700
3539900
3543000
3566700
3571200
3574000
3617000
3620000
3622000
3624100
3625800
3627800
3630000
3632700
3635600
3695000
3699900
3735200
3737900
3740900
3743100
3745500
3747900
3749900
3752600
3755000
3787500
3790900
3795400
3799200
3809500
3840300
3848200
3854200
3867600
3914300
3921800
3926700
3931800
3935200
3940100
3944000
3948800
4023300
4070900
4075100
4077600
4080300
4084100
4125100
4133500
4136100
4141900
4144200
4151200
4164500
4176200
4191600
4201200
4208500
4223200
4236600
4240900
4245600
4249400
4252700
4255700
4258500
4260500
4263500
4268900
4309600
4313400
4316200
4320400
4323200
4326000
4331000
4362400
4367000
4441500
4447200
4449400
4454100
4457300
4472900
4527100
4529100
4531500
4533500
4536200
4538200
4540200
4542300
4544700
4548700
4601300
4609500
4614700
4672700
4679400
4686400
4689500
4762900
4766400
4769400
4777000
4815500
4824300
4853200
4856000
4858400
4860900
4863200
4865600
4933900
4983200
4988800
5033900
5037000
5043000
5046400
5048700
5051100
5054400
5096300
5102200
5108100
5139800
5143000
5146600
5150100
5193300
5200900
5239900
5244100
5247100
5251800
5257100
5283000
5289300
5291900
5294500
5300500
5377000
5380000
5383600
5386100
5388900
5393000
5396000
5401200
5404600
5415200
5461800
5488700
5493800
5496900
5503300
5508200
5542800
5548500
5586600
5593000
5597000
5600100
5602600
5604900
5609800
5611800
5614400
5617100
5620300
5623700
5629700
5632100
5641200
5677200
5681900
5686400
5703500
5709400
5714500
5717000
5720700
5756100
5762500
5765700
5770000
5802000
5812000
5819400
5823000
5825500
5832000
5836800
5878000
5883800
5889700
5892600
5896300
5899300
5904800
5916100
5974800
5977900
5980200
5982600
5985600
5989400
5992800
6031100
6035400
6038700
6041000
6043300
6045700
6047800
6049700
6051800
6054400
6057600
6061100
6140700
6177800
6180000
6182700
6184900
6186700
6188500
6190900
6193600
6197000
6200100
6249900
6256700
6286000
6292900
6297900
6300400
6303400
6306200
6310100
6342000
6346900
6380600
6386200
6391300
6425200
6431900
6527000
6556600
6572100
6576100
6583400
6610400
6616300
6620400
6623000
6625500
6629100
6631900
6635500
6641400
6649000
6657400
6664100
6671500
6696200
6700700
6703400
6706000
6708300
6711000
6749800
6753700
6759500
6762800
6851300
6857400
6889800
6896600
6901000
6905200
6910700
6938300
6946000
6949200
6953400
6997300
7003900
7047700
7051900
7056100
7063400
7101500
7106900
7111000
7115900
7118500
7172200
7175800
7181300
7183800
7188500
7194100
7239700
7247900
7250800
7252900
7256000
7258100
7261000
7264800
7267700
7270900
7279200
7333800
7346700
7350700
7354900
7358300
7362200
7369600
7460700
7466800
7470100
7473000
7480900
7545300
7549500
7553700
7605100
7609600
7648000
7660200
7699200
7704500
7710500
7742600
7745500
7748000
7750300
7752300
7754500
7756900
7759000
7761700
7794000
7846800
7851000
7863300
7868900
7887900
7929000
7932100
7938100
7943600
7947300
7983200
7986200
7988300
7990700
7992700
7994900
7997100
8000300
8004000
8040100
8043100
8045300
8047700
8050600
8056200
8060800
8064900
8101100
8108200
8111700
8114000
8119000
8121600
8125200
8131400
8161200
8167500
8171600
8177100
8181400
8231100
8235700
8238600
8243300
8246000
8283300
8289500
8291900
8294100
8296300
8299100
8302100
8334500
8341200
8343300
8347300
8352000
8400600
8405700
8410200
8438200
8450200
8452400
8457200
8461400
8463500
8465900
8468600
8471200
8473300
8475400
8477900
8481100
8517600
8522900
8525600
8529500
8534600
8588600
8596100
8632600
8638400
8643800
8649300
8683200
8692400
8737400
8741200
8748300
8752300
8797200
8806500
8839400
8844100
8851500
8878900
8882600
8886100
8889900
8893000
8962600
8965200
8967300
8969200
8971000
8973000
8975500
8977500
8979700
8984500
9007300
9013700
9019800
9064500
9070600
9107700
9110600
9112900
9115800
9118800
9121800
9149400
9153000
9155000
9157300
9159700
9161600
9163700
9167200
9198100
9201300
9203900
9206200
9208300
9255800
9259400
9271000
9278000
9281200
9284900
9288400
9296800
9320000
9322900
9325000
9327100
9329500
9331600
9334000
9337400
9339900
9343300
9403900
9407400
9410500
9412900
9414900
9418000
9420100
9422700
9425100
9427300
9431100
9434000
9436900
9440700
9442900
9445500
9486500
9489500
9492000
9495600
9526000
9528400
9531700
9534000
9536700
9571700
9575500
9577700
9581100
9584300
9613100
9615200
9617200
9620200
9623000
9627200
9658200
9662500
9700500
9706100
9709500
9732000
9737900
9741300
9744000
9746600
9749700
9752700
9756900
9780500
9821700
9828400
9836800
9894200
9901500
9927900
9988900


