# repro call number: 0
# mode: 3
# signal: 2
# stimulus file: /extra/setup/oel/stimuli/receptorInfo/gauss_st6_co800.dat
# carrier freq (kHz): 5
# stimulus length (msec): 1000
# pause between stimuli (msec): 700
# length of ramp (usec): 1000
# desired firing rate (Hz): 100
# standard deviation (dB): 6
# cut-off frequency (Hz): 800
# repetition number: 0
# duration (msec): 1000
# intensity (dB): 86.4444
7000
10000
12900
15800
22000
28400
31600
34600
38700
43300
51500
64600
69300
72500
80200
84800
90100
99000
106500
114300
118000
123600
128300
134200
139800
147700
153000
161100
165300
171400
179900
192300
200400
207000
212000
229400
234500
242100
261800
268800
284400
289000
297100
310000
317200
329100
335100
342300
348500
358100
370000
377500
387000
396200
406000
411300
415500
424900
432600
441100
445000
450900
457700
484700
500600
522200
527200
534000
541700
553900
566200
570200
574400
585100
590600
606700
611600
615800
626100
637100
644100
650300
667800
679900
688700
692200
704900
712600
717000
721700
736600
741200
748100
753200
759500
766900
781700
787000
798900
807100
813100
818600
823200
835000
844300
851900
856400
860900
881500
894300
903400
912500
922200
936800
942400
948500
957500
962700
970400
975100
988300
1002300
1008800
1012600
1031700
1039900
1045000
1050300
1060000
1069700
1075800
1081200
1086900
1093900
1106600
1111200
1127900
1135300
1139400
1148500
1156900
1163400
1175400
1182500
1192700
1212400
1216400
1220800
1240900
1246700
1254500
1263800
1270000
1273700
1292300
1296900
1301300
1306300
1316000
1331200
1341700
1345200
1351500
1371300
1378100
1388700
1393400
1406400
1435400
1441600
1447100
1457300
1462300
1474000
1490900
1496800
1507900
1518000
1528500
1539200
1543600
1547500
1551200
1570300
1576500
1587800
1603300
1608100
1613300
1621100
1628100
1645300
1652800
1665200
1670400
1677000
1686500
1692300
1700800
1709300
1722300
1731200
1739600
1753200
1757600
1781400
1791200
1795700
1799800
1807100
1812400
1822700
1833100
1837200
1840900
1845600
1852300
1856900
1874100
1880900
1890200
1898400
1905400
1922900
1930200
1936800
1943600
1948700
1968300
1982900
1989300
1997500
2005800
2010700
2014500
2035900
2046200
2065900
2070500
2077300
2085300
2110600
2128100
2133000
2139600
2147600
2163800
2173300
2177300
2196100
2200800
2205300
2212400
2221300
2225600
2240400
2254200
2258600
2265500
2273500
2281700
2287000
2301200
2306700
2314600
2321700
2326300
2344300
2354300
2370900
2383100
2394500
2398600
2406500
2414200
2422100
2425800
2451900
2455700
2467900
2471800
2480500
2487700
2501000
2507800
2512600
2528300
2534600
2541700
2548000
2553000
2561800
2575300
2600900
2608900
2639400
2643800
2655800
2662900
2670600
2681300
2688700
2697600
2709200
2723700
2729600
2735100
2744400
2750600
2758800
2766300
2771100
2799100
2809000
2818700
2823400
2849800
2877000
2896800
2909900
2920800
2936900
2940600
2950100
2958300
2975600
2986200
2995700
3007300
3014600
3024600
3041100
3048300
3072900
3077200
3081800
3094200
3099100
3114600
3120000
3131600
3138100
3145100
3155500
3163300
3168000
3188700
3194200
3200600
3215300
3227100
3236500
3252200
3266100
3271400
3281600
3298900
3305200
3312600
3326800
3333800
3348100
3355700
3376500
3393000
3402000
3407500
3419800
3429000
3445800
3453400
3459600
3484100
3489500
3497900
3504200
3513300
3527900
3537000
3542900
3554600
3577400
3587100
3597500
3606400
3612500
3626000
3646000
3650000
3654800
3661300
3676500
3681500
3696400
3708900
3713300
3717800
3721600
3728000
3736100
3745200
3750000
3760800
3779900
3788500
3794700
3814000
3843300
3851900
3866000
3874300
3891400
3909300
3915500
3920800
3931800
3936400
3940800
3977400
3988800
3998300
4010000
4016400
4030800
4035500
4041600
4047800
4059700
4066500
4072300
4083400
4090000
4095700
4100600
4104400
4119800
4128500
4136700
4141300
4146000
4152100
4161200
4172700
4180800
4193800
4200800
4217700
4231800
4254500
4262500
4277100
4286900
4300700
4310700
4318600
4337000
4345400
4353300
4359400
4372600
4377600
4395500
4404500
4420500
4427800
4445900
4452200
4456900
4465000
4480500
4487900
4494700
4515400
4522300
4529000
4538300
4546900
4557300
4571200
4581500
4599700
4609100
4625400
4640700
4648500
4654000
4660500
4671200
4681700
4694700
4700800
4714900
4730500
4751200
4765600
4770100
4787300
4793300
4808700
4821600
4827900
4843100
4853900
4864500
4880300
4885100
4888800
4896000
4914000
4923300
4930500
4934700
4944600
4957200
4991600
4996400
5013300
5024300
5036800
5043800
5049200
5055600
5062600
5076300
5084700
5097600
5109300
5114100
5120700
5126800
5134200
5139300
5159800
5163700
5176600
5185800
5192600
5204300
5219100
5226000
5234300
5246200
5254600
5270700
5276400
5280400
5293600
5297600
5305800
5317600
5327600
5335500
5348800
5354000
5362000
5370400
5384600
5393300
5401300
5405200
5419300
5435000
5444200
5457100
5465300
5470200
5477100
5483500
5491500
5499300
5505400
5519600
5542700
5563000
5574200
5586300
5592900
5608300
5619000
5637000
5642800
5647100
5654500
5666800
5671800
5676700
5682000
5694300
5701800
5706800
5728800
5741900
5763000
5770200
5785300
5804000
5820400
5825200
5829000
5836900
5842900
5846700
5856000
5865000
5877800
5882400
5894600
5900500
5905600
5914600
5944100
5953400
5961500
5968500
5977500
5986400
5991800
5998700
6022800
6027500
6040200
6045900
6056400
6061600
6071300
6096400
6100600
6109800
6122700
6132100
6142300
6153100
6159500
6164800
6176800
6183400
6193900
6203500
6212200
6225400
6238300
6257000
6277200
6281000
6284900
6300000
6304600
6310500
6317000
6321500
6326200
6334400
6349900
6363400
6367500
6389100
6395800
6403100
6423600
6448600
6452600
6456300
6465400
6473100
6481200
6485700
6501100
6505400
6511100
6526800
6535200
6541500
6548400
6559400
6579600
6583700
6595100
6608600
6617900
6627500
6632000
6641200
6649200
6655100
6673800
6684800
6689800
6699200
6708000
6721100
6730300
6734100
6750800
6761400
6770300
6777600
6786100
6800800
6805500
6812800
6823600
6829300
6838000
6853800
6860200
6865000
6872800
6895000
6901800
6906300
6919600
6927700
6952700
6971900
6977500
6984500
6988200
6993500
7009400
7016800
7041300
7049900
7055400
7063400
7068400
7072400
7081800
7104600
7113700
7129500
7144900
7159400
7168000
7177100
7181400
7189100
7198100
7206800
7220200
7229000
7238300
7254100
7260400
7265000
7282100
7305400
7315600
7329600
7337100
7346500
7355500
7359800
7370500
7384700
7389600
7395900
7399800
7432900
7444300
7451400
7460800
7468300
7477700
7498900
7518400
7530800
7536800
7546300
7553900
7559000
7571800
7587600
7596300
7600500
7611200
7624700
7652400
7660100
7664400
7670800
7689900
7698300
7705100
7711900
7734200
7738000
7743500
7751800
7758800
7770000
7779900
7788800
7806800
7815700
7825600
7840400
7847400
7859400
7874800
7880300
7889300
7897300
7906800
7912400
7926900
7930900
7942200
7947100
7955900
7960700
7975700
7986900
7997300
8014000
8028200
8034200
8040100
8047800
8056700
8063300
8075000
8092700
8106900
8118600
8123100
8127800
8139700
8144200
8149200
8158300
8164500
8175600
8189500
8210400
8215000
8219900
8225400
8235200
8254600
8269500
8291200
8297200
8305800
8313000
8317000
8323800
8337700
8351800
8364600
8385900
8389900
8409900
8418300
8424000
8441700
8454700
8465300
8471000
8479000
8484200
8489900
8502800
8507800
8514700
8537800
8545400
8560100
8574800
8584900
8591300
8595700
8602000
8613000
8620700
8629300
8645900
8656200
8666500
8675500
8688400
8693200
8700000
8706600
8710900
8723700
8735700
8750300
8772300
8792400
8798900
8804300
8821300
8848200
8853200
8863600
8871800
8876400
8886500
8900100
8912700
8920400
8931400
8938200
8946900
8953700
8959600
8964300
8971400
8981200
9003400
9016200
9023600
9032000
9041300
9048300
9057300
9061500
9072600
9085400
9093400
9104800
9123700
9132500
9146500
9150600
9165600
9172400
9184300
9192300
9204400
9217300
9221800
9235200
9252500
9261200
9276300
9291900
9302700
9321800
9326800
9336000
9340300
9359500
9367000
9378500
9383100
9387700
9413200
9426900
9443800
9449600
9454200
9461000
9478800
9484200
9499900
9511500
9516300
9526800
9538000
9563400
9596700
9605700
9618200
9623500
9628700
9634200
9642700
9667900
9678200
9682700
9690000
9715000
9752500
9758500
9772600
9784000
9792000
9795900
9803000
9809400
9818300
9831100
9851900
9858800
9869300
9881600
9887100
9907600
9912100
9915900
9928500
9937000
9950900
9957600
9962700
9977500
9983700
9991300
10005600


