# repro call number: 0
# mode: 3
# signal: 2
# stimulus file: /extra/setup/oel/stimuli/receptorInfo/gauss_st6_co50.dat
# carrier freq (kHz): 5
# stimulus length (msec): 1000
# pause between stimuli (msec): 700
# length of ramp (usec): 1000
# desired firing rate (Hz): 100
# standard deviation (dB): 6
# cut-off frequency (Hz): 50
# repetition number: 0
# duration (msec): 1000
# intensity (dB): 73.2609
14700
17000
19200
25900
30200
34000
36600
55100
58000
61600
68800
71700
74200
76700
79200
81600
99300
102300
105600
108300
147900
150700
153000
157900
160800
170800
174500
179200
184000
193300
196700
211900
214800
217500
220000
230800
233500
236100
239800
243500
257800
261000
265200
267900
273800
277000
280300
283200
291600
297300
302100
340600
343400
346000
350600
353500
356900
360600
364600
387700
393200
401400
414900
417600
420300
424400
427200
441300
445800
472500
475600
478800
481500
484700
499300
504900
517900
520900
523900
529900
544100
548000
551000
554700
557600
560600
563400
585700
590300
619400
622400
627800
630600
651300
656200
676500
684100
687000
694000
719300
722300
725200
731500
753800
757100
760200
763600
767100
772400
789600
809900
816400
823900
827900
830900
833900
849700
853700
856600
860000
875400
878400
883600
888500
892300
912800
917200
921300
940100
957900
962200
965300
970000
984300
987200
1011000
1015300
1023800
1028100
1031100
1046600
1049600
1055200
1064300
1067900
1071000
1075900
1079400
1112500
1115500
1120400
1123500
1130100
1133500
1188400
1193600
1203100
1233300
1237300
1241000
1253100
1257100
1261000
1264100
1269600
1273200
1278300
1281500
1284600
1288900
1292300
1324400
1329800
1336400
1347500
1354700
1363400
1380200
1387100
1393300
1407500
1411000
1415400
1419000
1439000
1442500
1447800
1468800
1484000
1487400
1490900
1495200
1510000
1529100
1534700
1555100
1558500
1561800
1599200
1603100
1607900
1613100
1619500
1625700
1649600
1653700
1657100
1660300
1664200
1681400
1685100
1688400
1707000
1728300
1731500
1749000
1752400
1759300
1784700
1788000
1793900
1798300
1803200
1806500
1811300
1814800
1849600
1908600
1913700
1919000
1940000
1944600
1968100
1980600
1983900
1988900
1993800
1997200
2008600
2012200
2015500
2019600
2024000
2032700
2036200
2042500
2087200
2103400
2106700
2130700
2135900
2140000
2153800
2160200
2166000
2171300
2174800
2178300
2204700
2209600
2213000
2216400
2233700
2271200
2274500
2279200
2286000
2289800
2295800
2333700
2353000
2358900
2379400
2407100
2411200
2414700
2419800
2424400
2431300
2434700
2451600
2455100
2471700
2478600
2498500
2503900
2526500
2530100
2573000
2578700
2585000
2621200
2640600
2646000
2649300
2655000
2671500
2676600
2681700
2698700
2702300
2740700
2746100
2751800
2774900
2780000
2785500
2804200
2809100
2812500
2828600
2834100
2839200
2843000
2850000
2858500
2889500
2895200
2901300
2918200
2924300
2930300
2936200
2941500
2969500
3030300
3049800
3055100
3109600
3114800
3120100
3138500
3144100
3151000
3194500
3198300
3202000
3218900
3243000
3256200
3261600
3266800
3286000
3289500
3294700
3311700
3320700
3326400
3350700
3356300
3362300
3379300
3383800
3408000
3413400
3434200
3439900
3466500
3470400
3476100
3481500
3490500
3496100
3501800
3508100
3515700
3519400
3555200
3562600
3575500
3581100
3600200
3603900
3631100
3643400
3647200
3653700
3702100
3710200
3727100
3745400
3751500
3767800
3773200
3821800
3851800
3855300
3861400
3866800
3872200
3878500
3912100
3935600
3941400
3955300
3960500
3965000
3968900
3975300
3999100
4017100
4040600
4044300
4067300
4070900
4077200
4082500
4100300
4107800
4114300
4119500
4125300
4129300
4142800
4146500
4162800
4168000
4196900
4207400
4212300
4216000
4221100
4260900
4277900
4281500
4287400
4299200
4305000
4326800
4332700
4358000
4361700
4378100
4381900
4387700
4414100
4432700
4438500
4443500
4451400
4461100
4467600
4501800
4505800
4526500
4561100
4569400
4607800
4613200
4618200
4623300
4631200
4649400
4657800
4691800
4697500
4734400
4738000
4754600
4760000
4765300
4785700
4799300
4805100
4826400
4833000
4847000
4851800
4877400
4881300
4903700
4909100
4914400
4928900
4995600
5001600
5011200
5017100
5023200
5027200
5032800
5036900
5052100
5055800
5061400
5081300
5096100
5101700
5120200
5138300
5142400
5148900
5152700
5160900
5165000
5174000
5178200
5185000
5203400
5209100
5235900
5245800
5306800
5312600
5317500
5330300
5336600
5340400
5356300
5373200
5377200
5383500
5401400
5423700
5433000
5436900
5473300
5480200
5484000
5501700
5507800
5512800
5536500
5541700
5563900
5568200
5574300
5579800
5586200
5604300
5614500
5630000
5636100
5674800
5684600
5697100
5725800
5730600
5735100
5767900
5772200
5776100
5782700
5804600
5811500
5815400
5821400
5845300
5861900
5867700
5873500
5877600
5882300
5888000
5910100
5917800
5944000
5956700
5962600
5968200
6002500
6006400
6024700
6030600
6036900
6066300
6076800
6099900
6104300
6111100
6159600
6165900
6169900
6185800
6190000
6196700
6253500
6258800
6263800
6288900
6294400
6298400
6307900
6332400
6336400
6341900
6360100
6368900
6374500
6380700
6388400
6400200
6405100
6449900
6477500
6483400
6487400
6493000
6498800
6503400
6523200
6529100
6535200
6552900
6557200
6561300
6569600
6577500
6586800
6590800
6596800
6653600
6660900
6678600
6694400
6700100
6705100
6723500
6727700
6732200
6737100
6743200
6767300
6774200
6780900
6795100
6821000
6827200
6843800
6877000
6882400
6900100
6905800
6909700
6919600
6925500
6929600
6936300
6955600
6961700
6983400
6988800
7018800
7024500
7030000
7040800
7046800
7081900
7086300
7092100
7096900
7100900
7117600
7123500
7143600
7147900
7167800
7178200
7185200
7191000
7213400
7217400
7223600
7230200
7282200
7314000
7319800
7325000
7341000
7346700
7362500
7368600
7375100
7382800
7388900
7409200
7425300
7431400
7457100
7489200
7506900
7512900
7524200
7528400
7538800
7547000
7605600
7610900
7616100
7681400
7687100
7693300
7722600
7746400
7753300
7801700
7810000
7830200
7836100
7853700
7858100
7877500
7961600
7967000
7972100
7994300
8059600
8063500
8069900
8076600
8080300
8100000
8105400
8123400
8164700
8171200
8181500
8186200
8192500
8196800
8200800
8205200
8224900
8241500
8245400
8266200
8291600
8300800
8304800
8310200
8319500
8323300
8343000
8349000
8365800
8369900
8383800
8390200
8407500
8411400
8469300
8475100
8479100
8504200
8510100
8517300
8526600
8530900
8535000
8539500
8569600
8584700
8590300
8632600
8648800
8654700
8660200
8663900
8692700
8697300
8735200
8740900
8746900
8752200
8786200
8793300
8797100
8825600
8829200
8834800
8856200
8896200
8921200
8924600
8928200
8932000
8986800
8991300
8995600
9001500
9025100
9030400
9035500
9039700
9043300
9084200
9090400
9094100
9108100
9128500
9134600
9142900
9146500
9152300
9168500
9196200
9200900
9208800
9223400
9229500
9234400
9254800
9259600
9290500
9295300
9300500
9320200
9324300
9330500
9354100
9360000
9365100
9387900
9392200
9436900
9442500
9448500
9452300
9464200
9468000
9491600
9497200
9501000
9508300
9542200
9576100
9602800
9608700
9612500
9633500
9655200
9692700
9698000
9702700
9707200
9715700
9740600
9748400
9765200
9768900
9773800
9796700
9800700
9828600
9832700
9838200
9842700
9847900
9880900
9886600
9892700
9915400
9919800
9937000
9942700
9964700
9970200
9987300
9993400


