# repro call number: 0
# mode: 1
# signal: 2
# stimulus file: /extra/setup/oel/stimuli/receptorInfo/lmd_co200.dat
# carrier freq (kHz): 3.53553
# stimulus length (msec): 1000
# pause between stimuli (msec): 700
# length of ramp (usec): 1000
# desired firing rate (Hz): 100
# standard deviation (dB): -1
# cut-off frequency (Hz): 200
# repetition number: 0
# duration (msec): 1000
# intensity (dB): 84.375
6800
10700
15400
19700
23800
28700
34700
39000
43500
50100
54300
63800
78900
84000
89200
94200
98700
109300
120500
125800
131100
136500
143800
148800
160700
172000
176300
181300
193800
198100
209000
217800
232200
246800
253400
259400
267000
273800
281300
293900
308900
314600
319300
324600
336200
345300
351700
359900
365200
373800
385800
395300
400900
407000
415800
423600
431000
441000
448000
457800
464500
474300
488400
495600
501100
512300
521200
529200
538200
544600
550800
567400
583100
591200
604100
611100
616200
628400
636800
644900
654800
662600
671400
683600
691600
696400
701000
714200
729900
745900
751500
758800
774200
786500
796800
804700
818000
834300
849600
872400
879000
885600
903600
911600
917300
929300
947200
952200
962400
973800
984200
994900
1002400
1010800
1018200
1029400
1037800
1044700
1052100
1062200
1071200
1077400
1084700
1090600
1102600
1111500
1118500
1133500
1142200
1149700
1155400
1167200
1178300
1186400
1198800
1213100
1220500
1226100
1245500
1261000
1275000
1289600
1296100
1304800
1316400
1323700
1332800
1340200
1359200
1370600
1387100
1400600
1408700
1428000
1436000
1443700
1459800
1465500
1474300
1485400
1499500
1507100
1517900
1527300
1538400
1545900
1552500
1565000
1575600
1581900
1591600
1601500
1617400
1627300
1634900
1643100
1650800
1657900
1664000
1674900
1685200
1697800
1705900
1713100
1737400
1743900
1750000
1755100
1762200
1767600
1772500
1792400
1804200
1815100
1828500
1840800
1847100
1863600
1872900
1881100
1891000
1897000
1906200
1918300
1924800
1935800
1942500
1948500
1956900
1969500
1976200
1985000
2013800
2019000
2033300
2040800
2046700
2052600
2058500
2063600
2076600
2083800
2097400
2111700
2122800
2130700
2141400
2148000
2156800
2177600
2191400
2198600
2205300
2212200
2219300
2228800
2235900
2250700
2272600
2283300
2294800
2304000
2316700
2324300
2331300
2338100
2345400
2361700
2368500
2377500
2384300
2392400
2402700
2409300
2421200
2428200
2444400
2453500
2460500
2468400
2478200
2500500
2508500
2519400
2529500
2536100
2549900
2556400
2567500
2574300
2593600
2609800
2625100
2640200
2646600
2651600
2674800
2685500
2699100
2723600
2739700
2746600
2764300
2771300
2777400
2794800
2811000
2817600
2827100
2832700
2847200
2855500
2867100
2881500
2889100
2898400
2911700
2923000
2931200
2940900
2956800
2972100
2982400
2990200
3013900
3020900
3035000
3048800
3057200
3068500
3075700
3085700
3097300
3104900
3113800
3121200
3127300
3143300
3154000
3168800
3175600
3182800
3196100
3233800
3239200
3259300
3270300
3279100
3289800
3299200
3312900
3328600
3336900
3348700
3354900
3385100
3395300
3405000
3417900
3424800
3439200
3445800
3460900
3467700
3478600
3489400
3508300
3522400
3537700
3548800
3563600
3575900
3590200
3606200
3612900
3618700
3626600
3633800
3661700
3671100
3676900
3683000
3689600
3697200
3713100
3729800
3744200
3752100
3766500
3778800
3789700
3795600
3805800
3813200
3819900
3827700
3834800
3851700
3857900
3869700
3883800
3904600
3918000
3935300
3948800
3965000
3971200
3982100
3991200
4003100
4014300
4029600
4037000
4054400
4063500
4075200
4081800
4091200
4101300
4108800
4129300
4152600
4161000
4168700
4179100
4186300
4194900
4215500
4221700
4236900
4254700
4264500
4288800
4316700
4332300
4338000
4343800
4352300
4362000
4371400
4395000
4409600
4430800
4436900
4444300
4466100
4480100
4490900
4496900
4504300
4511800
4536600
4543800
4550200
4564300
4573500
4581900
4591900
4601700
4613300
4620100
4635000
4642400
4653300
4662500
4675600
4693700
4721700
4730600
4740800
4748200
4757300
4764600
4782500
4807800
4821800
4828900
4842900
4868200
4874700
4883100
4889500
4902200
4912900
4921200
4928300
4934700
4947600
4963200
4976600
4985800
4994700
5000900
5019500
5033800
5062700
5075300
5085900
5096600
5104600
5120100
5128000
5140700
5153800
5168600
5176600
5204400
5211700
5230700
5241400
5256200
5268100
5277000
5290800
5302400
5308600
5314600
5320800
5334400
5346500
5364800
5371000
5378600
5387200
5403400
5410900
5420800
5428600
5441000
5448200
5464100
5474300
5481900
5509000
5526800
5533600
5539400
5547300
5555400
5570600
5589500
5611500
5632000
5643300
5660800
5670000
5690500
5696600
5708500
5716900
5723200
5734700
5750800
5757700
5774000
5784200
5801800
5818100
5829400
5837500
5846400
5854100
5862000
5876500
5888300
5895000
5902300
5940600
5951100
5957400
5966600
5973400
5993100
6009000
6019300
6030800
6049300
6070700
6076100
6088600
6099300
6111500
6122100
6134700
6145200
6159700
6178400
6186800
6195400
6211800
6220300
6227700
6244100
6253500
6260000
6273400
6286500
6293600
6299900
6309300
6317200
6331300
6358900
6370500
6379200
6392900
6401000
6423600
6432400
6458400
6470600
6482000
6490200
6513100
6533100
6540900
6559200
6565100
6578500
6585400
6599400
6615400
6626000
6638800
6645000
6653100
6661200
6674400
6685800
6696300
6711600
6722100
6728300
6740200
6749500
6762400
6770600
6784800
6801800
6808100
6813600
6852300
6865900
6874100
6882100
6902000
6909900
6922700
6933100
6940200
6956800
6972300
6979700
7003600
7013900
7031500
7039100
7045800
7062400
7073200
7083700
7108900
7118000
7131200
7137900
7147100
7153400
7159800
7170600
7178900
7204700
7218400
7237700
7258600
7269400
7281900
7302700
7320200
7344800
7358100
7366600
7389600
7406400
7420300
7427800
7435200
7441400
7458700
7479200
7485800
7500200
7508300
7517900
7530700
7545000
7562600
7570200
7580900
7601100
7607300
7620300
7636300
7647700
7667300
7675300
7694200
7701600
7716600
7725400
7738800
7757900
7767900
7784100
7792000
7803200
7819500
7835500
7846200
7861000
7872100
7881200
7888400
7901200
7911700
7941600
7947800
7953000
7959000
7968700
7974800
8007100
8019200
8025900
8037500
8047100
8059300
8070900
8086800
8097100
8103500
8110100
8121600
8135500
8146000
8157700
8174900
8198900
8210200
8222700
8233700
8242400
8253900
8260000
8279200
8300800
8307800
8326700
8343600
8353400
8361800
8373600
8383700
8395400
8408600
8424700
8435000
8459900
8471500
8480300
8499300
8510600
8540900
8547200
8562000
8569600
8589700
8595900
8613000
8619700
8627600
8648200
8659000
8666000
8672600
8681700
8687700
8703100
8710700
8720000
8740000
8753300
8762900
8774600
8787600
8799700
8818000
8838300
8849400
8873400
8879700
8891500
8901800
8920100
8926600
8935200
8947400
8963700
8986200
8992800
9007200
9015000
9031900
9040900
9052700
9059500
9069200
9075600
9087100
9107200
9124800
9130900
9135900
9149300
9167300
9183600
9192600
9202000
9223000
9230800
9236800
9258900
9267900
9278100
9299800
9308500
9316100
9346400
9364800
9375400
9383900
9392800
9401200
9410300
9427500
9433700
9448200
9456900
9467600
9485800
9494300
9501300
9508200
9527000
9532900
9543700
9554200
9565600
9587600
9595300
9613500
9632400
9650300
9671500
9685400
9704900
9723100
9744000
9750700
9761700
9770300
9787200
9801500
9807400
9819900
9834800
9841100
9856600
9869400
9885300
9908400
9926100
9937700
9969500
9976400
9987600
10003300


