# repro call number: 0
# mode: 1
# signal: 1
# stimulus file: /extra/setup/oel/stimuli/receptorInfo/gaussModality_co200.dat
# carrier freq (kHz): 3.53553
# stimulus length (msec): 1000
# pause between stimuli (msec): 700
# length of ramp (usec): 1000
# desired firing rate (Hz): 100
# standard deviation (dB): -1
# cut-off frequency (Hz): 200
# repetition number: 0
# duration (msec): 1000
# intensity (dB): 93.75
6000
9900
13600
19500
23400
26900
31000
35000
41500
45500
50700
56800
60500
67000
72400
77500
83800
90000
96200
100500
104500
110300
115600
121200
127500
137700
144300
151400
164200
171500
178000
182300
187900
194300
200100
210400
220600
224900
232100
236500
240800
246400
253500
258400
265900
272000
282100
288600
297000
303200
308200
318900
323100
327400
337000
343100
357000
364600
370100
379500
386100
400400
407400
415400
420300
431000
446800
454400
461700
470000
475700
482100
486700
504400
511000
523200
531200
543700
550600
555600
561400
567100
571300
580200
592000
601800
614300
626000
636300
642200
651300
657900
667400
673400
680800
687500
696100
704000
710100
715700
727100
736500
741200
748400
756200
760800
771700
779000
790400
794900
801800
807400
815100
825000
832400
840600
850000
856400
864800
875000
889600
903000
912500
921100
935100
940200
956000
961200
967000
981000
988400
997500
1003800
1009500
1021400
1028300
1036500
1043700
1048800
1061300
1074500
1083500
1095600
1101700
1107000
1118300
1128900
1142500
1148200
1155500
1171900
1177200
1186200
1192000
1201600
1209000
1216300
1220800
1229900
1245700
1256100
1261500
1268800
1280500
1291900
1306000
1313400
1324900
1330400
1335600
1345500
1355000
1360300
1366900
1375100
1382200
1390700
1397600
1408500
1418400
1425300
1430000
1440200
1447900
1457200
1466900
1480500
1486900
1493700
1500900
1507200
1513000
1521600
1537100
1547500
1563900
1571900
1577900
1583900
1595300
1604800
1612700
1620100
1627800
1635700
1643300
1652500
1658500
1668800
1675600
1681100
1688500
1700400
1707500
1716600
1731800
1741100
1764300
1770000
1788100
1795100
1802900
1808800
1823800
1829600
1838900
1847800
1860900
1872000
1881600
1889200
1900100
1905400
1910900
1920600
1935600
1941700
1952400
1958700
1969400
1975900
1990100
1996300
2003700
2012000
2029300
2043000
2051800
2063400
2069500
2074400
2086000
2092600
2105700
2110900
2127900
2134600
2145600
2151000
2162100
2175600
2181000
2192400
2201500
2217200
2230900
2236800
2248300
2267400
2273800
2279400
2286500
2307500
2314700
2322500
2341600
2349100
2356800
2364200
2371100
2385200
2392600
2399100
2407700
2431300
2438700
2447500
2456200
2468200
2479000
2497600
2509000
2513700
2529100
2550600
2556200
2571100
2582700
2594500
2600100
2607900
2617600
2628500
2637500
2644100
2657500
2666000
2683300
2689500
2699600
2709100
2720900
2728300
2741400
2755500
2761200
2778900
2784200
2792300
2799300
2807200
2813400
2823200
2839900
2847400
2855700
2862300
2874900
2886000
2892100
2900700
2912800
2937200
2949700
2963200
2969700
2978600
2990500
3007700
3026700
3032900
3050300
3059100
3068100
3085600
3096900
3103600
3109100
3117400
3123600
3131100
3138900
3160200
3167200
3175400
3187900
3203400
3211200
3217300
3222100
3235500
3243600
3249000
3256700
3262600
3273900
3286000
3295400
3311300
3322300
3328000
3334600
3354800
3364500
3376200
3395600
3403500
3412500
3423900
3434000
3440500
3449900
3464000
3474900
3481800
3493600
3500300
3510800
3517200
3524700
3533000
3540600
3550300
3557600
3572200
3580100
3589500
3609000
3624900
3633300
3642500
3665200
3671200
3681100
3701800
3712400
3726100
3733100
3739700
3745400
3752100
3767200
3772900
3792700
3799000
3818700
3825400
3842700
3852300
3870000
3879400
3901300
3914500
3923600
3932400
3937800
3955800
3962100
3967800
3979300
3988100
3994100
4004900
4016000
4023200
4039400
4048700
4055600
4064200
4071400
4078100
4092300
4098800
4116300
4128400
4142800
4162900
4178500
4187000
4203800
4214300
4223100
4230200
4235900
4252300
4259800
4270400
4287400
4294300
4301500
4310600
4317100
4323900
4341900
4347900
4355400
4362900
4377600
4383800
4397600
4413400
4419600
4427100
4433600
4441800
4448900
4459300
4474200
4481200
4490500
4505700
4516400
4524900
4534200
4540200
4564100
4577500
4588700
4594900
4604700
4611500
4621700
4629500
4662800
4676900
4688700
4703300
4718500
4727000
4743800
4751700
4759700
4766100
4794700
4801300
4816700
4827100
4837500
4845500
4853400
4860100
4878100
4890100
4895700
4900800
4924000
4938600
4947300
4953000
4968900
4974500
4982300
4988200
4996000
5004900
5014000
5022700
5030200
5042400
5064500
5073000
5083700
5089900
5098900
5111600
5117600
5133800
5139200
5144400
5161700
5180100
5196700
5219900
5226700
5233100
5250900
5261600
5287900
5296000
5302000
5308800
5320000
5324800
5331900
5352100
5362900
5369800
5382600
5392600
5403500
5410200
5420600
5433000
5447600
5455900
5466100
5471900
5478400
5483400
5507500
5516300
5528100
5534500
5548100
5558100
5565900
5571000
5578800
5589000
5602800
5610800
5637800
5645700
5652900
5667000
5685200
5693500
5700300
5710600
5728600
5740800
5757600
5771400
5785100
5793300
5799900
5816300
5822600
5836500
5859700
5866200
5874300
5881700
5905500
5911800
5919400
5927400
5941500
5949400
5969200
5995900
6007900
6016000
6034200
6047900
6058000
6065100
6084200
6101700
6108500
6115900
6131600
6142500
6153500
6158900
6171000
6177800
6188500
6197200
6204100
6211700
6220000
6250000
6260900
6269400
6281400
6292200
6302800
6326400
6331700
6347800
6363000
6375300
6382300
6395800
6404900
6419200
6429900
6439400
6451600
6461800
6488100
6502500
6509900
6526100
6543700
6553000
6574100
6587500
6597700
6609300
6635300
6640800
6652600
6660200
6671500
6681400
6689900
6705700
6711100
6722000
6737500
6744400
6752000
6769400
6777400
6785200
6801600
6808700
6819900
6827400
6835100
6846400
6860000
6872000
6885300
6893300
6903000
6912400
6927100
6937900
6944500
6951400
6960700
6971500
6983300
7012900
7021100
7030400
7041000
7046200
7068800
7076200
7082300
7090300
7100200
7114700
7123700
7133800
7140900
7158500
7169000
7182900
7194600
7207300
7223900
7229300
7246400
7252100
7261600
7268800
7280700
7288200
7312700
7322000
7329700
7341300
7360400
7380300
7396100
7406900
7434500
7444400
7456800
7471500
7491100
7501700
7510500
7525700
7540600
7558400
7581100
7593300
7604700
7628700
7634200
7644900
7655000
7660900
7670300
7682600
7689400
7705600
7711900
7719000
7734700
7746200
7752900
7763600
7770400
7777100
7783400
7790100
7801200
7817700
7831000
7858500
7868800
7874700
7879900
7890800
7900500
7909600
7917800
7931000
7944700
7951600
7962100
7972100
7977600
7997900
8016800
8029400
8039800
8050400
8059500
8065400
8076700
8090400
8096300
8105600
8117000
8126000
8143200
8163600
8169200
8175400
8186300
8194500
8205900
8212400
8226900
8235000
8249000
8257900
8276000
8289900
8299300
8315200
8326900
8337600
8345100
8354700
8360400
8367000
8378800
8393800
8407700
8425600
8434300
8448900
8459300
8471200
8485500
8492100
8521400
8529900
8541300
8561200
8566700
8577100
8583200
8595100
8605500
8616200
8622900
8628300
8647600
8658200
8664800
8687300
8700100
8711900
8723200
8732200
8739600
8758300
8771100
8778600
8792000
8806300
8817000
8822700
8832300
8844000
8859300
8868700
8875700
8885500
8902500
8921400
8938300
8946800
8962200
8970500
8990000
8996700
9018100
9025900
9033800
9047000
9072900
9087300
9103900
9120500
9131600
9144500
9153800
9160600
9175300
9183500
9196700
9206700
9212400
9223700
9231300
9249800
9265800
9280800
9295700
9304100
9318000
9325900
9334600
9345600
9361600
9373500
9381300
9391500
9399900
9409400
9420200
9428100
9436300
9445200
9472700
9482700
9497900
9508100
9514100
9522800
9533000
9554600
9574800
9581000
9591100
9609100
9622700
9636400
9645700
9653200
9682100
9691100
9713200
9720000
9726300
9735300
9745700
9766700
9774300
9779700
9788500
9801900
9817200
9823100
9843000
9852600
9865800
9877100
9885000
9898400
9909900
9929700
9943200
9949800
9973500
9990900


