# repro call number: 0
# mode: 2
# signal: 2
# stimulus file: /extra/setup/oel/stimuli/receptorInfo/gauss_st3_co200.dat
# carrier freq (kHz): 3
# stimulus length (msec): 1000
# pause between stimuli (msec): 700
# length of ramp (usec): 1000
# desired firing rate (Hz): 100
# standard deviation (dB): 3
# cut-off frequency (Hz): 200
# repetition number: 0
# duration (msec): 1000
# intensity (dB): 56.2745
6200
10500
17000
24200
32400
38900
42200
48300
53300
58800
70200
76200
81100
86400
90200
102600
106200
108800
124200
128000
132100
148600
163500
167600
179900
183200
190900
198400
203700
210600
218900
227300
233400
246400
250800
258300
269800
274600
291400
302800
309500
313100
319800
331000
335900
339300
342900
347600
364500
371800
379100
384000
395800
400300
405600
411700
414900
422700
428000
432000
438200
461000
466200
474300
485200
490900
501300
513100
518700
524500
536500
547400
553900
561100
570800
575800
580600
587000
591100
600000
606700
615400
620500
625000
637500
640700
646700
652700
658800
662800
668700
690400
698200
705600
717100
730500
736500
748500
754400
758300
764100
769400
778000
782800
792300
797800
803400
811200
816000
825700
841200
846800
859600
874500
883900
893400
907700
917900
922200
925400
942200
951200
957500
963300
976800
980900
987900
995900
1000000
1012300
1017900
1027100
1036400
1042500
1047700
1057800
1065100
1068900
1082500
1088200
1095500
1107700
1111800
1115500
1124000
1132500
1142000
1146200
1158500
1165100
1174800
1183300
1189200
1194300
1198000
1212700
1217900
1224200
1233100
1243500
1252700
1259000
1266000
1272600
1284800
1300600
1304200
1318700
1328600
1332900
1341900
1349700
1353500
1356400
1368200
1376200
1396000
1402500
1406600
1417500
1421000
1430200
1441200
1449900
1453100
1462400
1468100
1478700
1488100
1493900
1502600
1509800
1513600
1521400
1524500
1530300
1534800
1558000
1563900
1575100
1583600
1595700
1603000
1612000
1618000
1625700
1630900
1639800
1643800
1658400
1671300
1678600
1688500
1695600
1700400
1709500
1716400
1719900
1731100
1739000
1746300
1755200
1761800
1767000
1771200
1775300
1778900
1792200
1797700
1804500
1810300
1828900
1845000
1848100
1856700
1869300
1886100
1896500
1900600
1912000
1914800
1920200
1926000
1931200
1942300
1949700
1958800
1970300
1975600
1984500
1987700
1994400
2011300
2016900
2021700
2029100
2035300
2048700
2054100
2067500
2078100
2081100
2086200
2090300
2095000
2105100
2116200
2119700
2127600
2131600
2138600
2144400
2155200
2164900
2171200
2176300
2181500
2185700
2188800
2198000
2203700
2209700
2216400
2225400
2229000
2240600
2254600
2263300
2268500
2276800
2291600
2294900
2318900
2325100
2335800
2343900
2351600
2355700
2375200
2384100
2391100
2396200
2408500
2413300
2421800
2429500
2433300
2440700
2450900
2461700
2488700
2501500
2510800
2516800
2527400
2539100
2545100
2558200
2561800
2565900
2576400
2591700
2596100
2599700
2613000
2626300
2632600
2637100
2651300
2655700
2666900
2673200
2686600
2700700
2704900
2716700
2722400
2732200
2742200
2746300
2766400
2772000
2778200
2791900
2804500
2809800
2814800
2819300
2828900
2834600
2837500
2850600
2854500
2865900
2868800
2873600
2884000
2890800
2896100
2905700
2912900
2917400
2924000
2933400
2939100
2945000
2949000
2953900
2965800
2972700
2979700
2994400
2999400
3008000
3019200
3030700
3038400
3043500
3053600
3056600
3067600
3078100
3089300
3108400
3117800
3123400
3129100
3136300
3140300
3155200
3167800
3172100
3184900
3195800
3203100
3209500
3215800
3221600
3228300
3238000
3243700
3256100
3265700
3270000
3291800
3302800
3321900
3326500
3333500
3343500
3356500
3360400
3365500
3371000
3377500
3394200
3399700
3404700
3413100
3418000
3422800
3429600
3434100
3445900
3453500
3461500
3468700
3481900
3485300
3490100
3495900
3501000
3506800
3513900
3517100
3529000
3538200
3544000
3563200
3566800
3572300
3577800
3583000
3597100
3602100
3611300
3618300
3639800
3646200
3658500
3671700
3682700
3686800
3690400
3693700
3697400
3708100
3719400
3729800
3734400
3739400
3750700
3761500
3765600
3771100
3781700
3788600
3798500
3808100
3814400
3824600
3838700
3849200
3854100
3857600
3863800
3876900
3887100
3891600
3895000
3915500
3923500
3944000
3955800
3959000
3972300
3980900
3989100
3996600
4003900
4011600
4025200
4030500
4044000
4055300
4058600
4067200
4075700
4082000
4087700
4092600
4102900
4112200
4116700
4125300
4141300
4148700
4165100
4177800
4187200
4197500
4202200
4210700
4221300
4226200
4234300
4240000
4248300
4258200
4268900
4280800
4291400
4299500
4304000
4310000
4329800
4334200
4337500
4345800
4359900
4363000
4366300
4377800
4385900
4394800
4409100
4412100
4427900
4444500
4450100
4475100
4487200
4492700
4502100
4509500
4519700
4528000
4536100
4540800
4548500
4555800
4571300
4577900
4588800
4594000
4601100
4607300
4612900
4620200
4624800
4635700
4648800
4653800
4659400
4663500
4680100
4710700
4729300
4736600
4744900
4751700
4767500
4771600
4786500
4798300
4806000
4810600
4815400
4820900
4842400
4848300
4860100
4872500
4878600
4885100
4896700
4903200
4906800
4910900
4916100
4922800
4927700
4946900
4955500
4961700
4979100
4992200
4999700
5006600
5022500
5034000
5037900
5045400
5056600
5068800
5089500
5096800
5102400
5107500
5129700
5138900
5151600
5158800
5162600
5169100
5183800
5186400
5200900
5214400
5219200
5224900
5240000
5251500
5257100
5266500
5271900
5275200
5291900
5299400
5304000
5309800
5322900
5331400
5338100
5345000
5356200
5366200
5373500
5381300
5387600
5393000
5399600
5406100
5423500
5428400
5436500
5450500
5461600
5470600
5473400
5478200
5493900
5501900
5511100
5514200
5530900
5536200
5551800
5570000
5579900
5582700
5608600
5615000
5626200
5634600
5639900
5650600
5662400
5667900
5677400
5685100
5695200
5705300
5712800
5724300
5745400
5764000
5768300
5785900
5798100
5805900
5828500
5839200
5843400
5850000
5856900
5874300
5880800
5896600
5900600
5911200
5916200
5939800
5943700
5962300
5967600
5970600
5974300
5991500
6001400
6025200
6044000
6058900
6065500
6075400
6084200
6089200
6096100
6104900
6127400
6136000
6140900
6145100
6153500
6163800
6171200
6181400
6199200
6204500
6219400
6224900
6230300
6241000
6252800
6257400
6263200
6278100
6286300
6301200
6304800
6318100
6324700
6329200
6332200
6344400
6353000
6363100
6371100
6378300
6393500
6412900
6423300
6430900
6439800
6448200
6461100
6467900
6474000
6478600
6491100
6494400
6502300
6509100
6517300
6531000
6540400
6562100
6569300
6576100
6590500
6602000
6605800
6612900
6632100
6638200
6645900
6649100
6656000
6665100
6670700
6675300
6686100
6698000
6707000
6712600
6725400
6737800
6745200
6748800
6753600
6760200
6771600
6781000
6790300
6802500
6815200
6819600
6826400
6832700
6837900
6844000
6854700
6869100
6887500
6894900
6900400
6907200
6929900
6938000
6944100
6952600
6959600
6963700
6970800
6984700
6988800
6992400
6998300
7015500
7022800
7032000
7036800
7055200
7059900
7078600
7087300
7092600
7104700
7118300
7122700
7136900
7143800
7149200
7154300
7160500
7179800
7185600
7197100
7201200
7206000
7218500
7233800
7252000
7263600
7269300
7282200
7289400
7307900
7320400
7327500
7332200
7345400
7350400
7358600
7372400
7380900
7386200
7392800
7411900
7416600
7437000
7447300
7453100
7459600
7465100
7470400
7475400
7491500
7495300
7509500
7525000
7533600
7536800
7547000
7564800
7578200
7583700
7592900
7602800
7608700
7614300
7620300
7628900
7636300
7650400
7656400
7673000
7689700
7705300
7720600
7737800
7747400
7753400
7760400
7769500
7786000
7797800
7803900
7814900
7824100
7831400
7837700
7851000
7860500
7873500
7891100
7901400
7907000
7911000
7919200
7943600
7959300
7964800
7974100
7980700
7986400
7998000
8007200
8028000
8036500
8051300
8056500
8070700
8080900
8087500
8093700
8113200
8119600
8125900
8143800
8150700
8160000
8171300
8178900
8185100
8193000
8211100
8218100
8226900
8230600
8238900
8246900
8257300
8263600
8273000
8279100
8284500
8296400
8313200
8319600
8325000
8370600
8378800
8384700
8398500
8415200
8420200
8428700
8438100
8443300
8458700
8467600
8472800
8485100
8497000
8512700
8522600
8526800
8540600
8546800
8566600
8573800
8582200
8614000
8623200
8629400
8641300
8655800
8662000
8682200
8697900
8705300
8711600
8716000
8736300
8744200
8762600
8768300
8778100
8782900
8802500
8809600
8823300
8841400
8848500
8872500
8877300
8903700
8908200
8913900
8933800
8952900
8963100
8967700
8988500
8992100
9003000
9008200
9011700
9019200
9041800
9047600
9055400
9066900
9080700
9087700
9105100
9110300
9115900
9122700
9129600
9139000
9154300
9160000
9168000
9172100
9177700
9185400
9198500
9221200
9231500
9239600
9247200
9259600
9263200
9269900
9278500
9287300
9302500
9315200
9330200
9337900
9345500
9351300
9365000
9368900
9374700
9379700
9401200
9414000
9420100
9428600
9440700
9448000
9457700
9470200
9479000
9487500
9502700
9507900
9521400
9532000
9536600
9545700
9558400
9562200
9588500
9603100
9613300
9621300
9625300
9635900
9651300
9662500
9670200
9679500
9689800
9697000
9702300
9709100
9714500
9733900
9744000
9754800
9762300
9775000
9781100
9788400
9803300
9807900
9821600
9826600
9843700
9848100
9878200
9885700
9899100
9903100
9914100
9921100
9925100
9938600
9946700
9963800
9974000
9980300
9988500


