# repro call number: 0
# mode: 3
# signal: 1
# stimulus file: /extra/setup/oel/stimuli/receptorInfo/gauss_st6_co200.dat
# carrier freq (kHz): 5
# stimulus length (msec): 1000
# pause between stimuli (msec): 700
# length of ramp (usec): 1000
# desired firing rate (Hz): 100
# standard deviation (dB): 6
# cut-off frequency (Hz): 200
# repetition number: 0
# duration (msec): 1000
# intensity (dB): 75.2857
7000
10100
13900
17200
25000
28500
33800
37800
42200
47700
51500
60000
63300
67900
75700
80800
84000
87500
93000
104500
128700
135800
145200
148200
156500
172400
183500
191300
200000
209500
213100
216500
219400
228000
244200
255500
260000
269200
277200
285400
299700
304900
308800
312500
328600
336900
343900
352900
362000
365300
369300
372300
385700
397300
400400
404200
412300
418300
427900
435300
442100
456000
461800
465100
469300
475000
480400
483600
489000
496700
503000
513900
529000
538100
548200
555300
558500
564000
567100
584300
590700
596700
605600
612000
615600
619700
627100
633000
659800
669600
673800
677100
682300
689500
704600
716100
719400
728600
740900
744200
748800
759600
770600
791200
794400
799500
802800
813600
824000
829900
835800
849100
857800
861100
866300
893100
900200
904500
914000
929100
936800
940400
958600
962000
967100
972500
978800
1002200
1005700
1009100
1024600
1030600
1056200
1066900
1071200
1075500
1080800
1084400
1088400
1092100
1096200
1114600
1126200
1134400
1144900
1152700
1156400
1159900
1176800
1187000
1191900
1199000
1206200
1212400
1223800
1234700
1240100
1245200
1255400
1259000
1268100
1274200
1285700
1290900
1296500
1300500
1305400
1312100
1315600
1322700
1339200
1346000
1364900
1374200
1380400
1393400
1400100
1405300
1412000
1415300
1420000
1431400
1447300
1451800
1466800
1478000
1481500
1487800
1500700
1512200
1531900
1544700
1549700
1554900
1581500
1589700
1593700
1597000
1610600
1618300
1628200
1635500
1640100
1643700
1657200
1662900
1671000
1679800
1692800
1699900
1705500
1708800
1721600
1733700
1738200
1743300
1746900
1757100
1770400
1781400
1787200
1800300
1814700
1826500
1833800
1841600
1856000
1870200
1878000
1885700
1890900
1899600
1903700
1914500
1919000
1934800
1938400
1949400
1961100
1967100
1972000
2001600
2016300
2019700
2031200
2035000
2046200
2053400
2057800
2067800
2075100
2080100
2084600
2087900
2100400
2106900
2111000
2115400
2119000
2135100
2138500
2162800
2171600
2182300
2186200
2193000
2212300
2232400
2237500
2245100
2256900
2262400
2266800
2277700
2281600
2284900
2294200
2302300
2316000
2321000
2327300
2340900
2347200
2351200
2371500
2377300
2383100
2392200
2401500
2405000
2413700
2426000
2434300
2437900
2442700
2454200
2460700
2481500
2492800
2496900
2500200
2511800
2520200
2527300
2546100
2563200
2574100
2579300
2588500
2594000
2600600
2607700
2613500
2625900
2629600
2639200
2649700
2658600
2663300
2677600
2688300
2698000
2701600
2725300
2739600
2743200
2751200
2757100
2764700
2769600
2776000
2797200
2802200
2809400
2816400
2824000
2827700
2833900
2838800
2843100
2849100
2860200
2866100
2878600
2886800
2893100
2898500
2914300
2925800
2931800
2937600
2940900
2947300
2957600
2962000
2968400
2982900
2997400
3014300
3026400
3030700
3039700
3044400
3055900
3064900
3089800
3093800
3097800
3103500
3114100
3124500
3133700
3138400
3154700
3164300
3167700
3173700
3188000
3195700
3200800
3212800
3216500
3230200
3235900
3247700
3261000
3271400
3278500
3285200
3290600
3296900
3323200
3329800
3339200
3351200
3358300
3368200
3377500
3385000
3392800
3398700
3402900
3409700
3423500
3431200
3450400
3455800
3467800
3471600
3476800
3482800
3494000
3497600
3507400
3513200
3535200
3539100
3542700
3546100
3553700
3557200
3571400
3580300
3588100
3597100
3608700
3612800
3621400
3638400
3643800
3651000
3662200
3672900
3679800
3687400
3691100
3697300
3711600
3715800
3725800
3746600
3750700
3756000
3762300
3768200
3772500
3779000
3786200
3796300
3803300
3808700
3812300
3820500
3834000
3838000
3843900
3860600
3878600
3891200
3900200
3905600
3915800
3922100
3932200
3947600
3957000
3974300
3985700
3992000
4003200
4006900
4012200
4019600
4044400
4052600
4058100
4064600
4068300
4074300
4078200
4085000
4089100
4092800
4105500
4122200
4133100
4143600
4158300
4170900
4176700
4187000
4191900
4203400
4217200
4224800
4228500
4232000
4235400
4239700
4247300
4251800
4264300
4282100
4293900
4298800
4305000
4315200
4321800
4326200
4332400
4348500
4370100
4374800
4392800
4396500
4401800
4407400
4414500
4426100
4432000
4443900
4448100
4454000
4465200
4470700
4479700
4486800
4491200
4502700
4508200
4523900
4535000
4539600
4543300
4557900
4564900
4590900
4595600
4600500
4604500
4626400
4640700
4651000
4663300
4672600
4687900
4697500
4713700
4717300
4729200
4740200
4743900
4747300
4754200
4761600
4772300
4779300
4791400
4797600
4803500
4809200
4813500
4819400
4824300
4834900
4849300
4872900
4882800
4886400
4895300
4901300
4909100
4925400
4933100
4948600
4963000
4981000
4987700
4996300
5002100
5005700
5018200
5025000
5032900
5036500
5044300
5058600
5062100
5074200
5084100
5088700
5093300
5096900
5111100
5114900
5139100
5145700
5156800
5166300
5173900
5178400
5183400
5206300
5213000
5218900
5224300
5243000
5247000
5257700
5265000
5277700
5286100
5294500
5301800
5326700
5334100
5348300
5355200
5362000
5365900
5372000
5386700
5396200
5421700
5428300
5434100
5438600
5442100
5449100
5455200
5460500
5470500
5476800
5480600
5484000
5497000
5513100
5518700
5529800
5533500
5540000
5561000
5568800
5575200
5578900
5585700
5622500
5634800
5645200
5650500
5654900
5662400
5671800
5680400
5687600
5691400
5705500
5711500
5730400
5739600
5756100
5759800
5764600
5771900
5784900
5802200
5809700
5814200
5828100
5834300
5844000
5849700
5853400
5862100
5871300
5875200
5885500
5899700
5907600
5917300
5922900
5927900
5939500
5951500
5962300
5993900
6008600
6030000
6036900
6051700
6056700
6063900
6067600
6073900
6095300
6099200
6109300
6116200
6122300
6149000
6162400
6173000
6186100
6191200
6195000
6200000
6206500
6210100
6221000
6237300
6248800
6257400
6269900
6274500
6278000
6296800
6304600
6313600
6318100
6335900
6339500
6348800
6371900
6388000
6401900
6408000
6416200
6426700
6437900
6443200
6454000
6467200
6472600
6478500
6491400
6505100
6509000
6524800
6539100
6544500
6551300
6556500
6560000
6564900
6571000
6578600
6584800
6598000
6614900
6624600
6635100
6640100
6643800
6655900
6660800
6679700
6688200
6696100
6702800
6713500
6721000
6734200
6753200
6765700
6782600
6788900
6795400
6799200
6810500
6815100
6822400
6833400
6840100
6852100
6872400
6879100
6895300
6899000
6909100
6916000
6922100
6932000
6936200
6941300
6951300
6982100
6991200
7002100
7006900
7010600
7017100
7023200
7028600
7064700
7070900
7076800
7090900
7104000
7110400
7120200
7128500
7142000
7152900
7157200
7161700
7173000
7177700
7193300
7204400
7210600
7230900
7236900
7244700
7250700
7257500
7261400
7281400
7301300
7308400
7315900
7325100
7336700
7342900
7348900
7353000
7363300
7372200
7376000
7384500
7393600
7404900
7409600
7419800
7429900
7451100
7463000
7467700
7480800
7488100
7499400
7504900
7515700
7520900
7526600
7534300
7541700
7546200
7553300
7559500
7565500
7573300
7579000
7589400
7594200
7601000
7621200
7628600
7641900
7658900
7666900
7672900
7682900
7688400
7702200
7708100
7714700
7718300
7722600
7728700
7746600
7754700
7782500
7787800
7792900
7823500
7830000
7836000
7856700
7861500
7865700
7869600
7873400
7898600
7908700
7914500
7918600
7922400
7929300
7934400
7940900
7945400
7955200
7960700
7967800
7974400
7984400
7988500
8014400
8018300
8024900
8028600
8034600
8048700
8054400
8081200
8086700
8090900
8103400
8109400
8120500
8129800
8139000
8145300
8153100
8160800
8170900
8177200
8196600
8205900
8210300
8215100
8229300
8242900
8248000
8263300
8274200
8282100
8294800
8298700
8305100
8309700
8325200
8332300
8347400
8353500
8359100
8369900
8386400
8392000
8396700
8413200
8419100
8423500
8459200
8476900
8481300
8485500
8498600
8502300
8506100
8513600
8525800
8538200
8556400
8569700
8591500
8595100
8614400
8621000
8626000
8638500
8659400
8667300
8680400
8692800
8698500
8703400
8708900
8722300
8726300
8733100
8744900
8751800
8760200
8767000
8773100
8782000
8785900
8796600
8816500
8824700
8828800
8833100
8841000
8847500
8861200
8867700
8873900
8895100
8918300
8924700
8931000
8936900
8945800
8964300
8971200
8987300
8998200
9005500
9009400
9018900
9040500
9049800
9056000
9062300
9067900
9071700
9082800
9100000
9109200
9117700
9121400
9135100
9148100
9177900
9182400
9186100
9199400
9207600
9213200
9217400
9236000
9239900
9249900
9259200
9266900
9276100
9286800
9293000
9299400
9308500
9312700
9340600
9349200
9369800
9376600
9393700
9398600
9405100
9410000
9421500
9425400
9436900
9451400
9463300
9467600
9477300
9481100
9493200
9517300
9523300
9534500
9557100
9563900
9579100
9588300
9597800
9603300
9613700
9619500
9627900
9635300
9645700
9665700
9684000
9688900
9694200
9702900
9713100
9730000
9733900
9741700
9767400
9779700
9793100
9797300
9818400
9824000
9835000
9848600
9860700
9875400
9879200
9898300
9908600
9914000
9918100
9924100
9929500
9936000
9945300
9956500
9960500
9964700
9978300
9982200
9999000
10003100


