# repro call number: 0
# mode: 1
# signal: 1
# stimulus file: /extra/setup/oel/stimuli/receptorInfo/gaussModality_co200.dat
# carrier freq (kHz): 3.5
# stimulus length (msec): 1000
# pause between stimuli (msec): 700
# length of ramp (usec): 1000
# desired firing rate (Hz): 100
# standard deviation (dB): -1
# cut-off frequency (Hz): 200
# repetition number: 0
# duration (msec): 1000
# intensity (dB): 81.2791
5400
10700
20700
22600
32700
40400
42300
56300
61300
71300
82000
90100
94900
97200
99200
102800
119300
121200
128900
163600
171800
180600
184000
186800
192400
197900
210400
222900
225600
231400
235800
238900
255900
258500
266400
269000
287300
305200
308300
310600
319700
322000
325700
327800
341800
355500
357600
363000
367100
370400
377800
383600
399600
407300
417700
430200
448600
453200
460600
478500
483700
489000
503200
505400
509900
522300
529600
549000
552900
566300
587800
593000
600400
624700
636300
640300
656100
666500
671500
685300
702900
708200
713000
725600
739200
747300
754400
759900
770700
777800
789900
792100
799500
806000
814600
831300
838900
848500
854700
862400
874200
887800
889900
902000
910800
920300
934100
937800
955000
958500
964700
979700
987200
1001200
1004100
1007900
1020900
1024300
1034300
1036600
1046000
1048200
1059700
1073600
1077700
1082400
1089900
1094700
1098100
1105700
1127500
1140700
1143400
1147200
1170800
1174100
1184300
1191600
1200700
1207500
1217100
1253700
1259600
1265400
1295300
1323200
1325400
1333700
1338800
1345000
1353400
1358600
1365000
1373500
1379900
1395700
1406700
1417400
1423500
1428500
1466500
1484000
1491900
1494100
1499600
1504500
1508400
1510800
1519700
1527300
1545400
1569900
1574900
1578000
1581100
1596000
1609600
1613400
1618300
1625200
1634500
1641700
1649300
1654900
1672100
1678300
1680600
1683100
1697800
1705300
1715700
1730200
1732600
1739200
1767500
1769600
1771700
1787000
1792300
1805500
1824800
1827100
1844300
1849500
1870500
1887300
1901600
1908400
1918600
1934600
1939000
1950300
1956600
1962700
1968200
1973300
1975500
1980900
1990200
1994700
2001700
2011500
2027600
2047800
2061900
2066400
2068700
2071800
2074200
2085100
2090500
2103500
2106100
2108500
2139500
2143900
2146400
2149800
2160100
2162400
2172900
2179900
2190300
2199800
2216700
2228800
2247100
2249200
2266600
2272200
2276400
2278500
2284100
2295500
2305900
2312700
2346700
2361700
2363800
2368400
2377400
2385500
2390000
2406800
2431000
2437300
2439500
2445300
2447400
2453800
2466300
2506900
2509700
2527000
2553800
2569400
2580700
2583100
2593700
2616900
2619100
2627500
2641400
2643900
2664500
2686200
2690400
2696800
2707500
2709600
2725600
2728000
2734100
2740000
2747700
2753700
2758700
2761000
2780100
2782500
2797700
2808900
2823400
2838000
2846200
2853000
2855300
2859900
2865100
2872100
2884300
2890600
2896500
2899800
2911000
2936200
2947600
2949900
2961900
2967200
2970100
2977200
2979700
2991300
3006500
3024700
3030800
3049100
3056800
3059000
3068800
3084000
3094500
3100300
3106400
3115700
3120500
3130000
3137000
3139500
3164900
3173600
3175700
3186300
3201200
3208200
3213200
3217900
3220300
3225100
3242000
3254000
3259800
3271800
3285700
3294300
3309000
3321100
3325100
3327100
3331900
3352000
3358300
3363300
3374300
3376600
3394400
3400400
3410900
3415400
3421600
3436700
3441100
3451900
3461600
3473600
3479300
3491600
3509400
3514800
3522300
3537300
3548100
3555800
3571100
3577400
3579600
3589200
3606100
3608800
3622400
3630700
3632800
3635000
3639700
3651800
3668100
3672400
3679100
3692900
3700000
3710000
3724400
3730000
3736900
3749100
3765100
3770300
3783100
3790700
3795900
3817400
3822300
3840200
3847700
3853000
3861400
3868500
3870500
3876800
3878900
3899200
3912300
3922500
3929400
3935200
3941000
3957800
3965100
3976900
3991600
4002500
4004900
4014500
4021400
4023800
4037400
4047700
4053300
4060500
4069300
4075800
4090900
4095500
4128000
4142000
4144100
4163800
4176900
4184200
4192200
4211800
4214100
4217200
4232500
4236900
4251100
4258900
4268600
4274000
4291500
4297600
4309300
4314200
4316500
4339200
4345700
4354900
4360000
4365500
4379900
4395500
4400000
4411300
4416700
4419300
4423100
4430900
4445600
4459700
4472700
4482700
4488000
4503900
4513700
4515900
4531400
4538600
4547100
4577400
4587500
4592200
4597400
4603000
4607400
4610000
4620400
4630800
4634300
4660600
4662700
4674500
4686600
4689100
4701200
4703700
4715900
4719100
4724800
4730500
4741800
4746700
4749000
4764300
4793200
4797500
4814000
4825100
4837000
4843900
4851300
4857200
4876100
4887900
4890400
4892900
4897200
4899900
4923300
4936700
4938700
4944900
4950600
4960200
4972100
4979600
4982200
4986300
4993600
5003200
5011400
5027300
5039600
5063400
5070400
5090700
5096800
5111200
5114800
5118400
5131500
5135600
5140400
5142500
5178400
5193400
5195800
5223900
5229300
5231400
5265400
5284700
5289600
5295200
5299200
5301300
5305800
5317400
5320300
5322300
5328800
5336000
5361100
5367600
5389200
5401800
5407900
5418000
5420300
5442700
5446000
5453000
5457600
5464300
5469600
5476300
5481400
5505800
5514100
5516400
5525600
5527800
5531800
5546800
5555600
5558400
5563700
5566000
5568200
5576400
5579200
5586900
5601800
5604100
5608800
5618000
5625500
5643300
5645700
5649600
5658100
5666300
5668600
5682400
5684900
5691400
5697700
5708400
5714700
5729700
5739000
5756000
5769700
5782800
5784800
5796800
5799200
5813900
5819000
5825300
5863500
5870000
5872100
5899300
5909000
5916600
5924500
5939800
5946900
5968000
5994500
6005900
6013400
6015600
6032200
6039200
6046200
6077100
6093700
6107500
6112400
6114700
6124900
6130100
6140800
6145000
6151300
6155300
6168900
6175600
6187300
6193300
6201900
6207300
6210300
6213000
6241700
6248500
6259000
6266700
6290000
6300800
6302900
6325400
6329400
6345700
6361000
6372900
6378000
6393000
6399400
6403700
6406400
6417300
6421000
6423200
6427300
6437300
6450100
6459700
6462400
6487400
6505900
6513100
6524300
6542700
6550200
6586100
6595400
6597700
6607000
6627100
6635700
6637900
6642000
6656400
6669100
6681000
6686900
6698200
6704900
6714400
6719800
6736700
6741200
6751400
6768200
6775400
6796900
6817900
6825200
6832400
6844200
6857900
6925200
6927600
6936600
6941600
6948300
6957500
6969500
6972500
6982000
6984400
6997300
7019600
7021800
7027700
7040100
7042700
7072400
7075700
7080900
7098300
7113200
7121300
7125100
7132000
7137800
7141000
7156700
7181400
7192400
7194500
7202200
7222900
7226100
7228800
7244000
7247600
7258900
7263000
7267800
7272800
7278400
7280800
7290900
7317700
7328300
7357900
7359800
7378900
7393500
7405100
7431900
7442100
7469600
7489700
7492000
7499900
7502000
7510300
7512600
7524200
7528200
7555800
7558000
7580400
7582800
7591000
7593200
7601800
7627200
7630700
7649400
7654000
7668200
7671000
7680500
7686800
7716600
7732700
7734800
7748500
7767600
7781100
7783600
7787500
7799000
7808500
7817400
7819800
7833800
7856000
7871200
7876200
7878300
7887600
7897500
7907600
7910300
7914200
7942000
7944500
7955100
7959100
7971100
7973600
7985000
7995900
8015100
8028900
8038200
8055600
8060700
8076700
8087400
8089700
8091900
8103200
8114900
8124800
8161500
8163800
8171600
8174000
8182800
8192000
8203600
8205800
8209300
8225400
8232200
8234600
8247900
8250200
8255700
8273600
8276000
8289100
8298500
8313800
8325300
8336000
8344000
8346400
8352000
8364900
8391800
8398100
8424700
8431500
8434500
8446700
8459100
8474400
8483300
8489400
8493000
8519100
8521500
8528200
8538500
8540600
8559400
8563900
8569400
8574600
8579000
8581200
8593500
8603400
8619700
8621900
8624500
8646200
8655400
8662200
8683900
8698000
8700200
8709400
8712200
8725100
8730200
8735300
8741600
8750800
8770100
8776800
8789700
8791900
8814400
8819400
8821600
8829700
8836300
8841600
8858100
8867800
8874400
8882800
8900900
8903100
8918500
8924000
8936800
8939500
8945100
8947700
8968200
8970500
8986900
8993600
9016100
9023000
9026000
9044600
9046900
9084400
9086600
9102800
9106800
9118300
9130200
9132500
9142600
9158500
9163100
9173500
9181700
9194600
9204100
9208000
9221300
9229400
9231700
9247300
9251000
9264100
9279400
9301900
9317500
9322800
9332200
9343000
9345500
9352100
9360500
9378600
9384600
9389800
9397100
9408200
9417800
9425400
9432000
9442300
9470700
9481700
9496700
9506200
9511900
9514000
9520300
9531200
9561500
9572700
9578100
9607600
9620200
9628200
9638600
9644300
9651800
9654200
9680400
9688900
9711900
9717500
9723700
9731900
9743400
9764800
9767400
9774300
9776500
9789300
9800500
9803500
9818700
9821100
9840000
9850800
9864300
9875000
9881200
9891700
9895500
9898000
9907700
9930300
9941200
9947200
9971800
9974100
9988200
9990500


