# repro call number: 0
# mode: 2
# signal: 1
# stimulus file: /extra/setup/oel/stimuli/receptorInfo/gauss_st6_co200.dat
# carrier freq (kHz): 3.5
# stimulus length (msec): 1000
# pause between stimuli (msec): 700
# length of ramp (usec): 1000
# desired firing rate (Hz): 100
# standard deviation (dB): 6
# cut-off frequency (Hz): 200
# repetition number: 0
# duration (msec): 1000
# intensity (dB): 64.7222
9000
13800
18000
26600
30800
35000
40100
44300
49200
54100
61800
69300
78100
83600
88600
95200
105800
110300
121200
131000
138400
147900
152400
158000
175300
184400
188600
200200
207000
213700
218600
223400
229900
237300
246300
257400
264400
272500
288000
301900
306800
311500
319600
330900
338400
345800
354600
364500
371300
376700
388100
399300
404000
409300
415500
421800
430500
438700
451700
461000
466000
476100
483100
487900
498600
506400
516100
530800
540300
551100
557900
562300
567500
586000
591600
597200
608900
614400
619200
625500
630500
635900
660900
668800
674600
679500
685300
694000
707500
718200
724900
731000
743000
749100
762100
773100
793200
798900
805200
816600
824400
834100
838800
844700
851900
859700
867900
878000
885400
895000
903700
908600
915000
927100
932000
940400
951100
960500
966000
972600
981600
993000
1004400
1010000
1016500
1026700
1033700
1042100
1058200
1068800
1075200
1083100
1090700
1098400
1114400
1130800
1138100
1146500
1153900
1158600
1179300
1188600
1194400
1202300
1213900
1224900
1232600
1241900
1248000
1254900
1259900
1269900
1277300
1288500
1294600
1300400
1307100
1314800
1319700
1341200
1346700
1359200
1368600
1381400
1391900
1397100
1402300
1408300
1414400
1419900
1424800
1433900
1447100
1453100
1468700
1480400
1490000
1502600
1513600
1534000
1545100
1550700
1557800
1578300
1588800
1596300
1612300
1619300
1629200
1637600
1643300
1658500
1664400
1672400
1681100
1686500
1695400
1702800
1708900
1723000
1735600
1743400
1748000
1760100
1772000
1783100
1788800
1801600
1810700
1816900
1827800
1836000
1857500
1863400
1880200
1887000
1893100
1902900
1912800
1918800
1937100
1952100
1963400
1970200
1975100
1989200
2004800
2018200
2023200
2032900
2037800
2044000
2054200
2064700
2070300
2076200
2082400
2088800
2097700
2103400
2110800
2117700
2128700
2138000
2144200
2158600
2165400
2174800
2184700
2189800
2196500
2215100
2225100
2238000
2245200
2258900
2264100
2269800
2280600
2285400
2291800
2298500
2305100
2318500
2324900
2334900
2343700
2349700
2360100
2373500
2379800
2386400
2395600
2404300
2415700
2425700
2437300
2445200
2456500
2463200
2484000
2494700
2500500
2505600
2514300
2524400
2530800
2548000
2559000
2568000
2578500
2591000
2597900
2603900
2611300
2617400
2627800
2633900
2641900
2651600
2660800
2666700
2678200
2692000
2700400
2706200
2716300
2727900
2742500
2752200
2758600
2768500
2773500
2780100
2794100
2801900
2812000
2818600
2826800
2835200
2841700
2847000
2853800
2863300
2873200
2880400
2892100
2901900
2917000
2928400
2938900
2944000
2950800
2960200
2967000
2972500
2984900
3000200
3007700
3017300
3029600
3040800
3057300
3065200
3070300
3084600
3092900
3099100
3111600
3117100
3131400
3138000
3152500
3167200
3175000
3182600
3191600
3203100
3213900
3231900
3238800
3250600
3257400
3269500
3276900
3283000
3292700
3299100
3326100
3340800
3353100
3360200
3370600
3378900
3387600
3394700
3400200
3406100
3412500
3425900
3433000
3441000
3453900
3459700
3469700
3475400
3481300
3487100
3496700
3510000
3516500
3523000
3540400
3546800
3556400
3571800
3582300
3589800
3598800
3611500
3618100
3625200
3641200
3647000
3653800
3662700
3676500
3685000
3690400
3707000
3714900
3726200
3733800
3748900
3757700
3765400
3773400
3779300
3788100
3796100
3805600
3812100
3822600
3836900
3842100
3847600
3858000
3865500
3880600
3889300
3895700
3903700
3923400
3934300
3945700
3958900
3973000
3978700
3987300
3996500
4006200
4011200
4016400
4022100
4045900
4054300
4062100
4068400
4075800
4081100
4087500
4094500
4101600
4108000
4124000
4134500
4146400
4166800
4177700
4189400
4195400
4206300
4218300
4224700
4231000
4237900
4243700
4253500
4266500
4283800
4295100
4301600
4308800
4318400
4325300
4330200
4336200
4351300
4372500
4385900
4394700
4400600
4406300
4412700
4419300
4430300
4436000
4448900
4458200
4467500
4478800
4492500
4503900
4511100
4527500
4536600
4542400
4549100
4560000
4567500
4577300
4589800
4595700
4603400
4614900
4629200
4643400
4653700
4668200
4676600
4687700
4700800
4712100
4719100
4731700
4743900
4750000
4756700
4764400
4782800
4793500
4799900
4806700
4813200
4824400
4832700
4849600
4856500
4875300
4882500
4887700
4898000
4904400
4913500
4922900
4929300
4936600
4943700
4965600
4983200
4988800
4993600
4999900
5005600
5020800
5035300
5040600
5061200
5066700
5077500
5091100
5096700
5108000
5115500
5141000
5148800
5158900
5165800
5175400
5185800
5199800
5208900
5216400
5226400
5238900
5246800
5259200
5267500
5277800
5283400
5289500
5297500
5304800
5328400
5336600
5350900
5362200
5369100
5375500
5389300
5399800
5411200
5423200
5435500
5442100
5452400
5457700
5463700
5473500
5479100
5485100
5498700
5520900
5532400
5541400
5548000
5563500
5571800
5578400
5587300
5594800
5621400
5634400
5646500
5652400
5658200
5665200
5674000
5683800
5691300
5696900
5708400
5715300
5733100
5743200
5757500
5766700
5774500
5788400
5803100
5812200
5829100
5837700
5846800
5853500
5864600
5870300
5875900
5888300
5902100
5919200
5925300
5930900
5941200
5964500
5975000
5992500
6010800
6017800
6033700
6040400
6053100
6059900
6067900
6076300
6083500
6091800
6098400
6105600
6113500
6120000
6126300
6136700
6146500
6154300
6165200
6179000
6186100
6193700
6202300
6209900
6219500
6225000
6234100
6246400
6253000
6259100
6273100
6278900
6300000
6308300
6316500
6322900
6333300
6340100
6348900
6355300
6373400
6383400
6404300
6410500
6420400
6428200
6435500
6441600
6449200
6456300
6470600
6477300
6482400
6507600
6529100
6537500
6553300
6560100
6566900
6574200
6581800
6588300
6600100
6614700
6621200
6634600
6641100
6647400
6657800
6663600
6682800
6691600
6698800
6705300
6723500
6736000
6754300
6767800
6785300
6793100
6800100
6807100
6814600
6835900
6842800
6854700
6866300
6875100
6882300
6898000
6904700
6912900
6934100
6940400
6946800
6959100
6965400
6984100
6994100
7007700
7013600
7020300
7027200
7032400
7044000
7066000
7072900
7081200
7105100
7112700
7122600
7130200
7144500
7156300
7162700
7176000
7196000
7207000
7216500
7233500
7240000
7247300
7254900
7260500
7265700
7282300
7295900
7316100
7327200
7340000
7346000
7352500
7358200
7367900
7375800
7381800
7393500
7399800
7408800
7422300
7432000
7452600
7467700
7477700
7484600
7491900
7502100
7508300
7518400
7524500
7530200
7538200
7545600
7551300
7557400
7563000
7568800
7576300
7591700
7598000
7606000
7614000
7624700
7632000
7644300
7662400
7675500
7686500
7696300
7706500
7712300
7719600
7730000
7748800
7758200
7769500
7784600
7792000
7817500
7825800
7833300
7840000
7860900
7866700
7871800
7877400
7899000
7907000
7916600
7921900
7927100
7936400
7943000
7949400
7958100
7969800
7977600
7987600
7996300
8016200
8024700
8030100
8038500
8050900
8065300
8078000
8085800
8092800
8106000
8117600
8125000
8132800
8142300
8148900
8156100
8164800
8174600
8199800
8209900
8217200
8232300
8246400
8252000
8265900
8277400
8296700
8308600
8314500
8327900
8334900
8349400
8357000
8362900
8371600
8388600
8398300
8417500
8423400
8442100
8463400
8477900
8484100
8489700
8500700
8506300
8517300
8523400
8536300
8547500
8558400
8570800
8582900
8595100
8602000
8617400
8627600
8640600
8656800
8663900
8671100
8683400
8696600
8704600
8716200
8726200
8736100
8747700
8755200
8764300
8770500
8776800
8785800
8800300
8811000
8821500
8828200
8835300
8843900
8851200
8863200
8874100
8882000
8896200
8920800
8928200
8934100
8940400
8948800
8962800
8973300
8981800
8997600
9008900
9020800
9035000
9046300
9052900
9064300
9070100
9075300
9085900
9103600
9112400
9119400
9124700
9138900
9165000
9180200
9186300
9198900
9204400
9211600
9217800
9231600
9240000
9245800
9252300
9260800
9269500
9279000
9290300
9302200
9312400
9320000
9334300
9343700
9352600
9369400
9375200
9381200
9394800
9407500
9415400
9424100
9429600
9440600
9454900
9466300
9480100
9489400
9497200
9524300
9536000
9559800
9568800
9581300
9590800
9602100
9614900
9623200
9632300
9639200
9648700
9668400
9687400
9693000
9699300
9706900
9717000
9725500
9733400
9741800
9751200
9770400
9783800
9797200
9810500
9825900
9845000
9852800
9863400
9873500
9880400
9900900
9914800
9921000
9927400
9933100
9939400
9948500
9960400
9967600
9975600
9981800
10002000


