# repro call number: 0
# mode: 3
# signal: 1
# carrier freq (kHz): 3.53553
# stimulus length (msec): 1000
# pause between stimuli (msec): 700
# length of ramp (usec): 1000
# desired firing rate (Hz): 100
# standard deviation (dB): 6
# cut-off frequency (Hz): 200
# repetition number: 0
# duration (msec): 1000
# intensity (dB): 74.6591
4200
5800
6700
11400
21500
23300
26900
35400
44500
49000
57300
59700
77600
79500
84300
89800
92000
102100
126600
133800
143000
144700
156600
186100
197500
199500
207100
209900
214400
216800
241600
252900
266100
282800
284500
296500
302200
304000
310700
334000
340900
343900
350100
352300
359300
361100
366700
368600
384500
394600
396300
398400
401700
415400
417100
425000
426700
453700
458600
460500
471600
477400
479100
480900
486000
494500
501100
526700
534100
545600
552600
554300
556100
561000
562800
581500
583300
609600
612700
614500
623800
630100
632200
657600
669400
673000
675500
680000
682100
687400
701500
713600
715700
738100
739900
741800
755800
767600
788300
790000
791800
798800
811000
833200
846900
848900
854900
857000
864100
881000
890500
893200
901700
926200
928400
935800
937500
955800
958000
969900
976800
999900
1006600
1021600
1027700
1029700
1064600
1072000
1077800
1079600
1085400
1087200
1092800
1111100
1140300
1150100
1151900
1155900
1174700
1190000
1195900
1208800
1210600
1232400
1237400
1242000
1243700
1253400
1255100
1271600
1283000
1287900
1289700
1293900
1295700
1301300
1309200
1311200
1314100
1336200
1342200
1361400
1390700
1392500
1397100
1409500
1411500
1417200
1428200
1448400
1465000
1475500
1477200
1479100
1485000
1486800
1508700
1530200
1540700
1545700
1590500
1592200
1625100
1636800
1638500
1640400
1655000
1659300
1661300
1669000
1675600
1681400
1690200
1702800
1704700
1720400
1736700
1740700
1742600
1754400
1756400
1777700
1812200
1824600
1831300
1848400
1853300
1875300
1886600
1896600
1912600
1932000
1933700
1947400
1958100
1963800
1968700
1990700
2014100
2015900
2031400
2033400
2065000
2075900
2081200
2083000
2087600
2097400
2103100
2107700
2112400
2114300
2132300
2134100
2135900
2169500
2179600
2181900
2209900
2233300
2242600
2253800
2255700
2263100
2264900
2275400
2278500
2280300
2299700
2316300
2344000
2355400
2368700
2374800
2380500
2396100
2399600
2401400
2410500
2422400
2432200
2439200
2452200
2457600
2477900
2480300
2490500
2496200
2498100
2509300
2519300
2524800
2526700
2542800
2560800
2575800
2586000
2587900
2591800
2597700
2599500
2610900
2612800
2624900
2626700
2636600
2646900
2655300
2661300
2695200
2697000
2737000
2738800
2748400
2753700
2766400
2772900
2794300
2806800
2814100
2821000
2822900
2835600
2839800
2841800
2845900
2857500
2861900
2876000
2888400
2893600
2911600
2928600
2935600
2937600
2944700
2954300
2967300
2980200
2983200
2994900
3023600
3025500
3041500
3052400
3062100
3087400
3089200
3094500
3099600
3119900
3131900
3161500
3163400
3185100
3186800
3197400
3206800
3210800
3212800
3227400
3233000
3246000
3259700
3268900
3277600
3287100
3294700
3304200
3319400
3336800
3348200
3373400
3381800
3383600
3389400
3395600
3399700
3421900
3428100
3447300
3453000
3454700
3468200
3470500
3474600
3491500
3493300
3505600
3511300
3535400
3537200
3542600
3551200
3552900
3568600
3577800
3585500
3606600
3618300
3641400
3648100
3669900
3684100
3685800
3687500
3712100
3721900
3743000
3747200
3752900
3754800
3769000
3785900
3800400
3805900
3807700
3817400
3833200
3835100
3841300
3857500
3876200
3883300
3888500
3891000
3897800
3900000
3918600
3953100
3972300
3998600
4003400
4009000
4011200
4042000
4054800
4062900
4064700
4070600
4074400
4083000
4085400
4087100
4130100
4160400
4174000
4188400
4190200
4200900
4210600
4215100
4224400
4226200
4228700
4231600
4237100
4248400
4250400
4279600
4295300
4297000
4302000
4312200
4314100
4323600
4329400
4345700
4372100
4390900
4392900
4399000
4405000
4423200
4428400
4430500
4443900
4445600
4451600
4466600
4482700
4487700
4505100
4507000
4521500
4532200
4537100
4538900
4554800
4556800
4562100
4591200
4597300
4638800
4648000
4660500
4669500
4671600
4684500
4708200
4712400
4714200
4726500
4737600
4739400
4742700
4758500
4789000
4794000
4800000
4806200
4807900
4820800
4869800
4880200
4882000
4898100
4900100
4907500
4922800
4925000
4932800
4978900
4986000
4993700
4999200
5001000
5015500
5030100
5032400
5034400
5055500
5057900
5071500
5085100
5086900
5089300
5091500
5093400
5109300
5111200
5135600
5142700
5154500
5163900
5172500
5180500
5204100
5210000
5215300
5222200
5232000
5241000
5254700
5274600
5276400
5283300
5292500
5299300
5323300
5346200
5361900
5363600
5369400
5393500
5418600
5420500
5430700
5435700
5437500
5446800
5457600
5468400
5474000
5478600
5493900
5495800
5509900
5527000
5528800
5558200
5565800
5574400
5576300
5632000
5641900
5644400
5651500
5653400
5678200
5685600
5688100
5702100
5703900
5729000
5753500
5755200
5761100
5763100
5768400
5770700
5782700
5799100
5807200
5831000
5840700
5847000
5848800
5850700
5860100
5869700
5882900
5897100
5914400
5919500
5921400
5924600
5926600
5936700
5949400
5959300
5998700
6005700
6014000
6028400
6034100
6048100
6053600
6062900
6064800
6072300
6092300
6094200
6096000
6107100
6119200
6146400
6159900
6186500
6188900
6191000
6197700
6203800
6205800
6218000
6219800
6245700
6267400
6271800
6273600
6294300
6311000
6312700
6333000
6334900
6346700
6398400
6414500
6424500
6435600
6440900
6464300
6469300
6472100
6476200
6502600
6505200
6523500
6541600
6547800
6555200
6558700
6568200
6575500
6581100
6596000
6611400
6614300
6632400
6640400
6653300
6691100
6696700
6709500
6718000
6731600
6757100
6763100
6780000
6785700
6787600
6792300
6796300
6807600
6812000
6831000
6837100
6839100
6849200
6861900
6869800
6875700
6877500
6893000
6895900
6905900
6908000
6928100
6930000
6939100
6979300
6988100
6999700
7006200
7008800
7014300
7020300
7026900
7061800
7063700
7069200
7073900
7075900
7109500
7139300
7150700
7159700
7169900
7171800
7189800
7228100
7233800
7241700
7243500
7248300
7250400
7254200
7257900
7299000
7304700
7313000
7319500
7323600
7333900
7339300
7345800
7350100
7360500
7362800
7369400
7371100
7404000
7407400
7418500
7426500
7463700
7477900
7479800
7485400
7497200
7502100
7512600
7518000
7523800
7533400
7538800
7540600
7544200
7550500
7556400
7558500
7562200
7564400
7590600
7597500
7618900
7626800
7639200
7658800
7670400
7679200
7685400
7698600
7705100
7711800
7713600
7724300
7743800
7783900
7789700
7811200
7816300
7821000
7827100
7853700
7857900
7859800
7863200
7865100
7869700
7899300
7915000
7919500
7930600
7937800
7942200
7957500
7966400
7971800
7982400
8012400
8014200
8021800
8023700
8045000
8081100
8087100
8088900
8099900
8119000
8126400
8150600
8158400
8167900
8194200
8204100
8211100
8226600
8240600
8244700
8291800
8293600
8295500
8302600
8306700
8308600
8322500
8355900
8358400
8366500
8383800
8393300
8395000
8410700
8416400
8455600
8471500
8481800
8483700
8496300
8498000
8499900
8552600
8567000
8588300
8590200
8611300
8622800
8656300
8664300
8666200
8677700
8679600
8690100
8698900
8702500
8721900
8730200
8742200
8748600
8750400
8764500
8779700
8781500
8815400
8822000
8823700
8830300
8838900
8869200
8893200
8915500
8921700
8927400
8943700
8961500
8968200
8995300
8998300
9002600
9004400
9006400
9016300
9047000
9048800
9058800
9064300
9067300
9069100
9080200
9106400
9114700
9116800
9119100
9174200
9179100
9181000
9194600
9197600
9205100
9207000
9212300
9233600
9236300
9247400
9249400
9255800
9273200
9284400
9289900
9305600
9307300
9336200
9347300
9367900
9394900
9401900
9406600
9418900
9420700
9434800
9448000
9449900
9461000
9462800
9474700
9477200
9490800
9497600
9514300
9554800
9575800
9585100
9595800
9610400
9616900
9627500
9642800
9663300
9684000
9690200
9701100
9726800
9728600
9740100
9765100
9791000
9794400
9820300
9846300
9858400
9873300
9910200
9920700
9926200
9931700
9942800
9953800
9961900
9975300
9977200
9996600
9998500


