# repro call number: 0
# mode: 3
# signal: 2
# stimulus file: /extra/setup/oel/stimuli/receptorInfo/gauss_st6_co1600.dat
# carrier freq (kHz): 5
# stimulus length (msec): 1000
# pause between stimuli (msec): 700
# length of ramp (usec): 1000
# desired firing rate (Hz): 100
# standard deviation (dB): 6
# cut-off frequency (Hz): 1600
# repetition number: 0
# duration (msec): 1000
# intensity (dB): 68.6842
7700
11900
14600
17100
20700
27200
47700
55700
59600
65100
68200
77000
82000
87200
91000
94300
111600
119100
123000
126400
132100
135200
148100
156800
163800
167300
172400
180200
189000
197600
208200
211600
215200
223500
229200
233100
242100
249000
262900
266800
271300
277400
290100
296900
301000
304300
316100
321600
329900
336200
340400
350300
358600
375400
381000
387400
402600
407600
418500
423300
431300
452200
468300
472300
488500
491800
494700
510400
519000
523300
527400
531000
538500
550300
559100
562700
573100
580300
583800
611500
627900
636800
656700
661200
665200
669500
674200
683200
691100
702000
728100
739000
747100
750800
758000
761900
766400
770100
777700
796000
809300
823300
828300
832100
843900
858300
868300
872900
878800
886700
900700
930000
933500
939700
944500
951200
957100
988500
991800
998100
1002000
1010100
1015000
1020400
1031300
1040400
1045300
1055900
1061700
1066100
1069700
1079500
1083000
1099400
1105000
1112400
1116400
1125500
1129300
1138200
1142900
1158600
1173800
1183800
1189400
1195800
1203200
1209700
1213200
1221700
1233600
1251700
1264300
1274000
1279400
1290500
1309900
1314700
1325900
1341200
1347400
1356500
1367700
1381400
1388600
1394300
1401700
1409100
1420900
1445400
1452900
1457100
1462400
1469100
1477400
1481000
1493200
1505300
1511000
1516300
1524900
1529500
1537900
1548500
1553100
1561200
1568300
1573600
1582000
1597300
1602100
1612100
1618900
1624300
1636900
1647800
1652000
1660100
1665700
1670600
1685100
1693800
1711600
1725900
1732400
1736100
1746500
1770300
1779200
1789200
1795100
1802200
1820400
1826400
1831600
1840700
1857100
1862600
1884500
1898200
1914600
1919100
1929300
1934400
1941500
1952900
1958000
1973500
1982100
2006900
2015200
2033800
2040100
2050800
2057400
2069400
2074000
2079600
2087500
2097800
2115900
2121200
2131300
2146100
2150700
2156000
2163300
2174800
2181500
2185600
2194300
2216300
2251700
2257800
2280000
2289500
2307700
2324400
2332400
2339400
2344800
2371900
2376200
2382200
2386200
2391700
2403900
2416200
2427200
2431200
2439200
2448800
2454800
2459300
2466200
2474500
2479000
2484400
2490500
2494500
2507500
2519100
2541700
2548200
2559500
2580000
2589800
2603700
2608400
2626300
2638900
2644700
2657200
2685800
2692200
2704500
2708800
2714700
2721500
2729400
2736900
2745000
2760600
2764800
2786600
2791000
2795200
2806400
2820400
2825200
2840800
2851700
2860000
2867800
2884300
2898500
2918800
2924900
2929500
2935400
2945800
2951100
2974700
2999800
3017700
3035300
3040100
3046100
3050500
3056400
3068100
3073800
3088200
3097600
3122400
3136100
3141700
3166000
3185500
3191600
3195800
3200700
3217200
3238100
3247300
3261200
3268600
3281000
3289800
3303100
3307500
3324100
3331200
3344500
3350800
3367500
3377800
3396100
3405200
3420800
3427600
3433700
3438100
3443500
3447700
3456100
3465800
3471700
3492700
3496900
3501800
3518000
3524900
3540200
3556900
3563600
3569400
3596000
3612000
3617800
3630100
3637100
3646400
3674300
3697300
3712400
3726500
3747500
3753600
3761000
3765700
3777400
3789000
3799400
3803700
3837700
3843000
3849700
3859800
3867900
3872500
3899700
3904900
3923800
3939900
3945200
3949600
3961700
3986900
3993500
3999700
4005500
4011300
4017100
4022600
4040200
4056100
4078200
4084600
4106500
4119300
4123700
4128700
4136200
4143000
4152400
4177300
4184600
4198900
4205500
4214700
4235400
4241600
4259800
4265100
4269300
4276700
4281400
4286500
4295800
4308300
4326900
4334300
4348500
4352700
4358600
4368800
4379100
4394400
4400800
4406300
4412400
4419400
4426900
4437500
4447000
4452600
4457100
4470700
4483500
4511900
4517700
4531300
4550200
4554600
4575300
4586100
4594000
4599000
4607800
4629900
4644400
4650300
4659700
4665300
4672100
4682100
4697700
4709000
4720100
4732500
4737000
4746600
4763600
4776000
4802900
4807800
4812800
4819600
4847800
4855700
4867800
4880300
4885000
4891500
4898000
4910300
4923100
4950200
4960400
4995500
5009600
5029900
5055700
5066600
5071500
5083300
5096000
5102600
5113900
5126600
5138000
5144900
5158300
5174500
5181900
5190900
5196100
5202800
5209200
5213700
5230300
5245000
5250400
5262900
5267300
5282800
5294300
5329500
5344600
5364100
5373900
5381700
5399000
5407500
5419800
5428000
5446100
5453400
5459100
5465400
5476900
5490800
5507200
5513400
5525900
5530800
5541900
5550700
5582900
5588400
5595000
5619800
5634100
5647500
5655900
5668400
5692100
5707000
5717500
5724200
5735700
5745000
5755800
5775100
5788200
5811900
5826700
5840000
5847000
5888100
5901500
5911900
5921200
5926000
5940000
5949700
5965300
5972600
5980000
5984700
5991900
6019300
6026200
6047000
6059100
6076400
6085400
6097000
6110600
6117200
6131900
6136300
6141100
6151000
6156100
6164700
6169100
6173800
6189100
6193700
6202200
6242400
6255700
6277100
6293100
6305100
6317400
6324900
6332300
6341000
6360800
6372500
6385200
6390100
6421700
6426500
6440900
6460000
6470100
6493400
6505100
6511200
6517700
6525000
6547900
6552600
6559600
6570000
6579300
6593800
6604400
6643800
6661100
6672800
6697100
6705500
6711000
6719900
6724400
6736500
6744100
6756200
6764900
6772200
6776800
6788800
6793200
6803300
6807800
6842100
6849300
6880900
6891800
6918000
6927600
6933600
6950700
6956900
6985100
6992500
7001900
7016200
7023300
7031800
7035900
7043300
7059400
7088400
7104200
7117800
7123200
7136100
7156300
7176400
7183400
7188600
7196300
7217000
7222600
7239400
7246600
7259600
7270100
7275300
7282300
7296700
7302800
7346500
7353100
7382100
7395800
7403600
7407900
7432600
7437700
7443600
7448900
7471100
7493100
7500800
7512600
7517500
7532100
7547300
7559400
7580500
7596400
7604000
7619400
7624600
7629100
7646300
7652900
7668600
7674200
7682000
7698500
7709400
7729300
7749300
7763100
7770100
7792100
7805500
7829700
7836800
7844200
7849400
7853700
7862600
7868400
7891400
7902300
7911900
7927100
7931700
7945600
7959000
7976900
7984300
7996100
8016000
8025000
8035700
8046800
8063200
8067900
8076900
8091700
8113400
8119500
8125900
8135200
8139500
8159800
8170100
8177100
8189700
8194000
8198400
8223300
8249000
8258700
8267400
8280100
8317900
8345100
8354500
8371500
8378700
8389300
8396700
8429100
8437700
8447600
8459600
8470100
8481500
8486300
8510700
8516400
8549500
8573100
8578500
8584400
8629400
8637800
8642700
8648900
8659000
8665700
8672000
8679400
8698800
8718500
8733000
8745400
8775900
8782500
8789700
8793900
8800400
8806500
8814000
8823900
8832700
8838900
8856600
8862900
8870300
8891500
8901500
8912500
8920000
8933600
8944900
8949800
8960100
9002800
9011300
9026100
9040100
9047700
9053200
9067900
9081100
9085900
9108300
9125600
9133100
9142800
9155100
9161100
9176400
9202600
9209800
9226200
9230600
9244000
9264900
9292600
9302800
9331800
9337800
9349700
9355300
9368900
9384400
9406800
9411300
9417100
9429800
9451600
9466100
9490000
9504200
9513500
9519200
9538100
9546600
9556200
9566000
9570400
9593800
9610300
9615900
9620100
9633700
9661500
9684600
9689600
9696300
9707900
9720400
9727300
9738800
9779100
9799600
9814000
9822100
9831800
9846800
9868800
9881500
9889900
9898300
9910900
9915400
9942200
9946400
9976100
10000900


