# repro call number: 1
# mode: 3
# signal: 1
# stimulus file: /extra/setup/oel/stimuli/receptorInfo/gauss_st6_co200.dat
# carrier freq (kHz): 3.53553
# stimulus length (msec): 1000
# pause between stimuli (msec): 700
# length of ramp (usec): 1000
# desired firing rate (Hz): 100
# standard deviation (dB): 6
# cut-off frequency (Hz): 200
# repetition number: 0
# duration (msec): 1000
# intensity (dB): 67.8409
5100
6900
13200
22700
24600
26500
35400
37600
45200
49900
59300
66900
78900
81200
85600
90900
93000
104000
127500
134300
143600
145500
147400
157000
185000
197800
207800
211200
215500
217500
253100
267800
284100
298300
303600
305600
311600
334800
342900
351100
353400
360200
362800
367000
369100
385500
395500
397500
402000
416300
418300
426100
428200
454500
459900
461800
472700
478300
480200
487000
494700
502000
527800
536500
547600
553200
555100
557000
562200
564500
582300
594100
609400
611600
613700
625100
630000
632500
658600
670300
672600
674700
680700
688400
703800
714500
716500
738900
740800
742800
757900
788800
790700
792600
800000
802600
812100
833000
847800
850000
855800
857900
864500
866700
891200
893900
902500
904600
927600
929800
937100
939100
956500
958500
966300
971300
977300
1000500
1002600
1008000
1022600
1028400
1030400
1063100
1072500
1078500
1080600
1086100
1088100
1093500
1125400
1134600
1150100
1153400
1157100
1175100
1185100
1190900
1197000
1209700
1211900
1233300
1238600
1242900
1244900
1254100
1256000
1265500
1274100
1285200
1289000
1291600
1294900
1297200
1303000
1309500
1311800
1313800
1315800
1337300
1343200
1362900
1391300
1393400
1397800
1405000
1410500
1412600
1417900
1428600
1445400
1449500
1466100
1476500
1478500
1486000
1488200
1498400
1530700
1541100
1543300
1553100
1585900
1591800
1593800
1608800
1625800
1637400
1639300
1641200
1655400
1661000
1663900
1679200
1691100
1703400
1705300
1719700
1735400
1740900
1742900
1755200
1757500
1768000
1778500
1812100
1825400
1832300
1840700
1854100
1876200
1898000
1913000
1915200
1933200
1935300
1948200
1958700
1969500
1999500
2014700
2016800
2032100
2034100
2055700
2066000
2078200
2081700
2083800
2098100
2103300
2108500
2113200
2115300
2133300
2135300
2138100
2160900
2169700
2179900
2182000
2210300
2233900
2255100
2257200
2264400
2266600
2276600
2279400
2281400
2293200
2302600
2317300
2343900
2345900
2355900
2369200
2371200
2375500
2381500
2399900
2402000
2411700
2432400
2434700
2452300
2458300
2479100
2491700
2496300
2498400
2509700
2517200
2525200
2527300
2561800
2576800
2586600
2588700
2592500
2598400
2600700
2611800
2624500
2627000
2629100
2648000
2656400
2661300
2695600
2697700
2724300
2737700
2739700
2749800
2756900
2767200
2769500
2795400
2807100
2822400
2824400
2835800
2838800
2841100
2847000
2858800
2876800
2890500
2895200
2912900
2929400
2935500
2937600
2939600
2946200
2955500
2960500
2967300
2982100
2996100
3012500
3024700
3026900
3042400
3054500
3062300
3087800
3089800
3095800
3112300
3131700
3162400
3164600
3186000
3188000
3198500
3210600
3213000
3227900
3234200
3268400
3278400
3284000
3288700
3294800
3320100
3337400
3366100
3375400
3383200
3389900
3400300
3422000
3429300
3449000
3454000
3456400
3468800
3475200
3481000
3492400
3494500
3505300
3536200
3538200
3540100
3545200
3552500
3554500
3569600
3571600
3578200
3595300
3609100
3619400
3641700
3648400
3671300
3685500
3687600
3711700
3744400
3748400
3754100
3756300
3767000
3770800
3785900
3801300
3806600
3808600
3818800
3834100
3836200
3841700
3843800
3877300
3889300
3898200
3900800
3903400
3919500
3921900
3954500
3973100
3983800
4003900
4006000
4010600
4043500
4055900
4063200
4065200
4071200
4075400
4085600
4087900
4102700
4117000
4130600
4165200
4174600
4189100
4191200
4215700
4223800
4226000
4227900
4232200
4237600
4248800
4251100
4262500
4280800
4296400
4298400
4303500
4313300
4316100
4322600
4325000
4330600
4347900
4372700
4391100
4393100
4399900
4405500
4424400
4430000
4445100
4447300
4453800
4462600
4468300
4483200
4489400
4505900
4507900
4523600
4533300
4538400
4540800
4555800
4562600
4590900
4598000
4600200
4625000
4638700
4649700
4661900
4670700
4685200
4712500
4714600
4727100
4729800
4738600
4740800
4758900
4790800
4794500
4801100
4807300
4809400
4822300
4833700
4849500
4880700
4882900
4898700
4900900
4907800
4923600
4931500
4934300
4978600
4981000
4988000
4995300
5000000
5002000
5022400
5031500
5033800
5056100
5058200
5060600
5085900
5088000
5091900
5093900
5110700
5112800
5136900
5154700
5165500
5172500
5180800
5204600
5210900
5215900
5241700
5244200
5256700
5262400
5276600
5284300
5292700
5302200
5324000
5346900
5362600
5364700
5370200
5394600
5419500
5421600
5431800
5436600
5438700
5452700
5458500
5468900
5474400
5480700
5495100
5497400
5511000
5517500
5527800
5529900
5539300
5558500
5560600
5566400
5573700
5576300
5638600
5643300
5645300
5652400
5654700
5678600
5687100
5689400
5703400
5705600
5710100
5729700
5754100
5756300
5762000
5764600
5769700
5784400
5799900
5808200
5831700
5834200
5841400
5848100
5850600
5860200
5862200
5870800
5883500
5897300
5915400
5920600
5922800
5925600
5937800
5949400
5959500
5989800
6002400
6007000
6029100
6035000
6054200
6064400
6066800
6071700
6093000
6095200
6097400
6108500
6120000
6147800
6160600
6181500
6187700
6190200
6192300
6204400
6206500
6218800
6220800
6246600
6268400
6272300
6274500
6295000
6297300
6311600
6313600
6334000
6336000
6346900
6379700
6399200
6415900
6423800
6426500
6435900
6442000
6464800
6470700
6477000
6503200
6505700
6535600
6542300
6548700
6555900
6558200
6562800
6569400
6582200
6596400
6612700
6615800
6633200
6635300
6641100
6658400
6686500
6700700
6718500
6756500
6764400
6780900
6786800
6789000
6794200
6797500
6809400
6813200
6815600
6831200
6838400
6840900
6850200
6870400
6876800
6879000
6893800
6895900
6907400
6919100
6930100
6939600
6948500
6980400
6989700
7002500
7007400
7015600
7021900
7026800
7062400
7065800
7074400
7117700
7140800
7151700
7157600
7170900
7172900
7175700
7192600
7204500
7229400
7235000
7242800
7245200
7249400
7256100
7259200
7300100
7314000
7324000
7340300
7346300
7350800
7361400
7363500
7370300
7372500
7389000
7405900
7418200
7427800
7464000
7478800
7481100
7487200
7497800
7502600
7504900
7513400
7518600
7521300
7524700
7533300
7539700
7542000
7546000
7551300
7557500
7563200
7565600
7576200
7591300
7593500
7599100
7619500
7627400
7639600
7642300
7664900
7673600
7685700
7699000
7706000
7712800
7715100
7725400
7745000
7753300
7784800
7790600
7817000
7821700
7828000
7858300
7860400
7862900
7865000
7870800
7900000
7911900
7916500
7918800
7921800
7932100
7942500
7952000
7966000
7972800
7983400
7985800
8013000
8015300
8023300
8025500
8053800
8081400
8088000
8090000
8102100
8112300
8120400
8137200
8139900
8151200
8159600
8169500
8174600
8194700
8205000
8227500
8230000
8240800
8245400
8272000
8292700
8294700
8296600
8303600
8307700
8309800
8325400
8346900
8352000
8357000
8359200
8368100
8384300
8388700
8394700
8396900
8416100
8422100
8456900
8477400
8483000
8485300
8496800
8498900
8500900
8504000
8522700
8556100
8567800
8589600
8591600
8611700
8623600
8637300
8658000
8665200
8668000
8678200
8680300
8691900
8701400
8707400
8722700
8730700
8733400
8743400
8749500
8751700
8765400
8780200
8782300
8815400
8822700
8824700
8826700
8845200
8859200
8866600
8871500
8889100
8894900
8917000
8923000
8928400
8935500
8944700
8962300
8969700
8996500
9003700
9005700
9007900
9017200
9047400
9049400
9064500
9068300
9070400
9081000
9115700
9117700
9147800
9175700
9180700
9182900
9196200
9198600
9205900
9208100
9213700
9234300
9238800
9248500
9251400
9256700
9274500
9285800
9292100
9297900
9306400
9308500
9338300
9347900
9368400
9370900
9376200
9396200
9406900
9419900
9421900
9436100
9449300
9461600
9463700
9476000
9478100
9491600
9516900
9532500
9555600
9562400
9577400
9587400
9597300
9611100
9617400
9620000
9628600
9643300
9645500
9664000
9683500
9690800
9693900
9701400
9727600
9729800
9740500
9765700
9778900
9791000
9794300
9821300
9823800
9847800
9858100
9861500
9874900
9896800
9911000
9921500
9926700
9928800
9933000
9944100
9954700
9962500
9976300
9978400
9997000
9999200


