# repro call number: 0
# mode: 3
# signal: 1
# stimulus file: /extra/setup/oel/stimuli/receptorInfo/gauss_st6_co200.dat
# carrier freq (kHz): 2.5
# stimulus length (msec): 1000
# pause between stimuli (msec): 700
# length of ramp (usec): 1000
# desired firing rate (Hz): 100
# standard deviation (dB): 6
# cut-off frequency (Hz): 200
# repetition number: 0
# duration (msec): 1000
# intensity (dB): 63.9394
6100
7900
13400
15900
24300
27800
36200
39600
46900
51000
59800
66500
75200
80400
82900
86800
92400
105200
107100
117200
127800
135800
139500
145600
148200
157800
172200
174800
181700
188400
199200
209700
213600
218100
222100
231100
234400
243400
254300
268800
284900
300000
304100
307600
311900
335100
342700
348200
353400
361400
364100
368500
371100
386400
388700
396600
399200
403900
417300
419700
424000
427900
435700
455600
460600
463400
469000
474200
480000
482600
488000
496500
502800
514700
517000
529400
537600
547900
554700
557300
563000
566000
583900
589500
595100
611600
614700
626300
632300
635700
658900
662100
668900
674100
677000
682500
689000
704000
706400
716100
720400
730000
740100
742700
746100
758600
769600
779400
791100
793900
800900
813200
822500
834300
841400
848800
857300
864500
867300
892200
903300
912300
929000
937600
940300
957900
960700
967200
973100
978700
1001700
1004800
1024100
1029500
1065500
1073100
1079800
1082400
1087200
1094500
1098300
1126300
1137000
1143100
1152000
1154700
1158200
1176400
1185200
1191600
1198000
1210800
1214000
1223100
1234000
1239400
1244600
1250600
1255900
1266300
1273600
1285800
1290500
1296100
1299100
1304400
1311000
1314300
1337800
1345100
1363400
1383700
1392500
1395300
1399400
1405500
1412000
1414900
1419600
1430500
1445600
1451100
1466200
1477200
1480300
1487000
1498900
1515300
1531500
1535100
1543100
1553100
1579700
1587500
1592900
1595700
1609900
1616100
1627200
1634900
1639400
1642100
1656300
1661300
1665400
1671300
1678400
1692400
1699600
1705200
1707900
1715900
1721100
1732900
1738800
1743400
1756500
1759500
1768800
1779700
1801100
1814000
1826200
1833300
1851200
1855700
1863500
1868400
1877300
1884300
1889900
1899200
1913700
1934200
1936900
1950500
1960200
1965800
1970900
1989200
2001200
2015900
2018700
2029800
2033900
2045500
2057900
2067000
2073900
2082900
2085900
2099500
2105500
2109800
2114900
2117500
2134300
2137200
2161400
2171300
2176000
2182200
2192600
2211600
2230900
2241200
2256100
2259300
2265400
2269200
2277300
2281200
2284600
2294200
2301900
2317500
2326300
2340800
2346800
2357200
2370800
2376100
2382600
2391600
2401600
2412500
2428600
2433900
2441300
2453600
2460100
2470800
2480700
2491900
2497100
2499900
2502700
2511300
2522100
2527000
2530600
2545300
2553800
2562900
2573300
2578700
2588200
2594000
2599700
2604200
2613300
2623900
2627600
2630900
2639100
2649200
2661100
2664000
2674000
2692900
2698200
2701100
2713300
2725800
2739300
2742100
2750500
2755500
2762700
2769100
2775200
2796900
2800900
2809100
2815500
2823400
2826600
2832300
2837800
2842500
2848100
2859300
2864700
2878500
2891700
2896800
2904900
2914000
2930500
2936600
2940200
2946700
2956900
2961500
2967500
2983100
2997200
3013500
3025800
3038200
3043600
3054800
3064200
3072900
3089000
3092100
3097800
3104700
3114300
3134500
3143000
3163500
3166400
3170300
3178800
3187800
3190500
3199800
3212800
3215700
3229400
3235200
3247100
3261200
3271800
3278900
3289200
3295800
3306300
3322600
3338600
3350400
3357300
3366800
3375700
3384200
3391300
3397500
3401400
3419800
3425100
3430700
3450200
3455400
3470400
3476200
3483900
3493600
3496400
3507200
3515700
3537400
3540200
3544700
3553300
3556100
3570500
3579400
3587400
3597400
3608700
3619800
3640700
3643900
3650500
3661200
3672500
3686500
3689200
3712300
3725500
3745300
3749600
3755200
3761700
3768300
3772300
3787100
3796500
3802900
3808000
3811100
3819900
3833500
3836400
3843200
3859600
3878100
3886800
3892100
3899600
3903200
3915200
3921100
3955600
3970200
3984400
4000000
4005100
4011400
4044000
4064100
4067100
4072800
4077500
4084600
4088200
4099700
4131800
4144600
4156700
4171000
4176500
4190500
4193300
4203300
4213100
4217700
4224300
4227500
4230700
4234400
4239200
4249900
4252900
4263600
4282400
4294000
4298500
4304300
4314300
4317300
4322400
4326800
4332700
4348400
4368300
4392800
4395600
4401900
4407900
4414900
4426500
4431100
4442400
4447500
4454000
4463900
4469900
4477000
4486000
4490600
4503600
4508000
4523200
4535600
4540100
4557000
4564200
4573500
4588000
4592600
4599400
4610700
4626600
4639800
4651000
4663900
4672100
4682300
4697400
4709800
4715000
4718000
4728600
4739300
4742200
4753900
4761000
4777400
4790900
4796200
4802800
4808900
4817900
4823600
4833900
4851000
4871600
4882000
4894000
4900500
4908300
4924900
4933100
4966800
4980800
4984700
4990000
4996400
5001500
5004200
5018000
5025500
5032600
5035600
5043200
5057800
5060600
5074000
5086800
5089600
5093800
5111600
5137200
5144600
5156600
5166500
5173800
5182300
5205400
5211700
5217700
5224000
5236400
5244000
5255800
5264300
5277200
5281500
5286100
5294800
5301900
5325800
5333200
5347300
5355000
5364300
5371100
5386100
5396700
5417800
5422100
5433000
5437700
5440900
5448800
5455300
5459600
5471300
5476600
5481200
5496200
5512300
5518400
5528600
5531400
5540300
5560400
5568000
5574300
5577900
5591100
5638700
5644800
5649600
5654600
5661400
5679400
5687000
5690700
5704300
5707200
5711900
5729900
5751700
5756000
5763300
5766000
5770800
5784200
5800800
5809000
5826500
5833100
5843000
5849500
5853000
5861900
5867900
5872100
5885000
5899100
5916400
5922200
5926900
5937600
5945500
5960900
5989800
6007900
6016500
6029300
6036000
6045900
6051300
6057000
6064100
6067600
6073800
6089100
6095100
6098100
6109300
6115600
6121600
6147700
6161400
6172700
6189600
6192600
6199100
6205900
6208700
6220000
6247500
6256500
6268600
6274300
6277600
6296300
6299200
6305000
6312900
6316200
6329300
6335400
6340500
6348700
6371000
6389800
6400500
6413200
6424900
6430600
6437700
6442700
6454100
6465900
6472000
6478000
6505300
6507200
6523500
6542600
6549400
6556500
6559300
6564000
6570600
6577700
6583400
6593500
6613500
6624100
6633900
6637600
6642900
6655400
6683400
6694300
6704600
6712100
6719400
6729000
6740800
6758500
6765300
6778000
6783400
6787900
6794600
6798000
6803100
6810500
6814800
6833000
6839600
6850900
6863700
6871700
6878100
6884800
6895300
6905000
6909300
6930700
6935700
6940400
6943700
6962200
6981100
6990300
7002500
7008500
7015800
7022700
7027800
7033000
7064700
7070600
7076100
7090400
7107800
7120600
7141200
7152400
7157800
7172100
7175400
7192900
7204500
7217900
7230600
7236500
7243900
7249700
7254900
7259600
7300800
7314000
7322800
7335300
7342200
7347700
7352000
7363100
7371900
7374800
7390300
7405500
7409100
7419300
7451400
7465200
7473100
7480800
7487800
7499100
7504800
7514700
7519900
7525600
7534000
7541100
7546600
7553000
7559000
7564900
7577100
7588300
7593400
7600000
7620300
7628300
7641100
7648600
7659800
7672300
7682200
7687600
7700800
7707300
7714400
7717400
7726500
7737300
7746300
7753600
7785600
7792000
7808200
7818000
7823500
7829300
7832900
7855700
7860400
7864700
7867800
7873000
7897200
7902200
7909800
7914300
7918600
7925600
7933400
7938800
7944200
7952700
7959800
7967300
7973700
7984100
8014100
8017400
8024300
8027300
8045400
8054400
8063600
8083000
8090000
8102000
8114800
8122100
8129900
8140100
8152100
8160100
8170200
8176700
8196100
8206400
8214700
8224500
8229200
8241000
8246900
8262100
8273800
8293900
8296600
8303900
8308400
8311300
8322000
8326800
8346300
8352500
8359100
8368200
8385200
8395400
8398400
8413300
8418700
8422700
8442500
8458300
8478900
8484100
8497500
8500200
8504500
8523700
8537600
8551900
8558400
8569300
8590800
8594800
8612800
8620200
8625400
8637600
8658900
8666100
8669400
8680100
8691800
8701300
8708100
8713800
8724200
8732600
8744200
8751100
8760100
8766600
8780800
8783600
8796200
8815700
8823900
8826600
8832000
8840600
8845600
8853900
8861300
8869400
8878700
8890300
8895400
8917900
8923700
8929600
8935900
8945100
8962900
8970500
8996900
9004500
9008000
9017400
9032900
9035700
9040400
9048900
9051700
9060600
9066400
9070500
9081900
9098800
9108800
9116400
9119300
9135000
9148600
9159000
9177000
9181200
9189500
9197100
9201200
9207100
9210100
9215600
9235600
9237800
9240500
9248900
9251800
9258200
9266100
9275500
9286100
9289400
9294100
9299600
9308000
9311500
9338400
9349100
9369500
9372300
9377700
9387500
9397500
9404900
9409100
9419900
9423000
9436700
9450700
9462800
9465700
9476400
9480700
9491700
9510900
9522000
9533300
9556600
9563400
9578000
9587900
9598500
9612200
9618400
9621300
9630200
9644900
9664700
9681900
9685400
9693700
9711200
9728900
9731700
9740800
9757500
9759300
9766900
9779000
9780900
9793600
9806500
9822500
9848100
9859600
9863300
9874900
9876900
9898400
9900800
9912300
9915200
9923100
9928400
9935300
9945100
9956500
9964400
9973400
9977500
9980400
9998400
10000100


