# repro call number: 0
# mode: 3
# signal: 2
# stimulus file: /extra/setup/oel/stimuli/receptorInfo/gauss_st6_co100.dat
# carrier freq (kHz): 5
# stimulus length (msec): 1000
# pause between stimuli (msec): 700
# length of ramp (usec): 1000
# desired firing rate (Hz): 100
# standard deviation (dB): 6
# cut-off frequency (Hz): 100
# repetition number: 0
# duration (msec): 1000
# intensity (dB): 72.8378
13800
22100
25000
27700
30800
46600
49700
61600
64500
67200
77600
81000
83900
86700
89600
95700
101100
105100
108100
119500
123000
132600
137500
140600
143400
150400
154100
157700
175800
183000
194200
197500
201900
213800
217300
223000
229000
235100
248400
272600
276200
287700
294700
298200
301200
304000
307600
316000
321100
325600
339900
344100
352100
357000
365600
374700
379100
385300
389000
407700
411900
427800
434900
438500
451900
456400
459900
465900
469700
489500
492700
496100
505200
510900
521400
525300
528500
533900
555500
559000
569000
574000
590900
607700
610900
618700
622500
668900
672400
682400
686900
693500
697300
701400
710400
719900
723400
728100
732000
747900
751100
754800
759000
762300
772600
784700
805100
828700
832200
856800
860500
864600
886900
890900
900700
920500
923900
928100
932100
957200
980400
985200
992900
996600
1007600
1016300
1019700
1027900
1032100
1041400
1047200
1050600
1053900
1083600
1087600
1090800
1095100
1105200
1108600
1111600
1120300
1129700
1133800
1141700
1145400
1155600
1164000
1173500
1177000
1188800
1214900
1229300
1251800
1281500
1284900
1305600
1309100
1313200
1322800
1326600
1335300
1339400
1346000
1349300
1371700
1387800
1425400
1429600
1456500
1467100
1476700
1480400
1488300
1498700
1502100
1506800
1516000
1519500
1523600
1562100
1576500
1580700
1584200
1588100
1596900
1600900
1615500
1628000
1647000
1650300
1653500
1671900
1677900
1685800
1698300
1702000
1744600
1748700
1752300
1755700
1759400
1768500
1772200
1775600
1789900
1796000
1799700
1802800
1808800
1812300
1829000
1832300
1837000
1858800
1862600
1875000
1883600
1891600
1902000
1906300
1911900
1915500
1922900
1927200
1936900
1960400
1963900
1967500
1979900
1999900
2003700
2012200
2015900
2024300
2028200
2034200
2039300
2044400
2064700
2068000
2071800
2075900
2085900
2098700
2102800
2112400
2117300
2120900
2131400
2135000
2148100
2153000
2176100
2187200
2190700
2218800
2222500
2242600
2272100
2280500
2286900
2294400
2298400
2311300
2314700
2317800
2321200
2325200
2328900
2333500
2345300
2349400
2367300
2372500
2394500
2398200
2409600
2440900
2444200
2449400
2470400
2475000
2486500
2511800
2519900
2528000
2531500
2556700
2560600
2592800
2604900
2626000
2631100
2636400
2642400
2652500
2660100
2663400
2666500
2673900
2678800
2684900
2688900
2716000
2719400
2722500
2732700
2748600
2752100
2755600
2759600
2765000
2777300
2796300
2817300
2842500
2846100
2857200
2861100
2899800
2903700
2911600
2915100
2944400
2965900
2969300
2972700
2980900
2984200
2987900
2994600
2998000
3007700
3015700
3019200
3025100
3029200
3034100
3047600
3098900
3102400
3118900
3127200
3131300
3174900
3185400
3188700
3191700
3201300
3209500
3213000
3224200
3249900
3253800
3285400
3288900
3294200
3313300
3340500
3343800
3355300
3359000
3370300
3402900
3414700
3418000
3421300
3446000
3468700
3476600
3483100
3492400
3495800
3505500
3512600
3516200
3528300
3542800
3549300
3553300
3559800
3567100
3570500
3579800
3583400
3589800
3594100
3619300
3662600
3681000
3695700
3711700
3715700
3720600
3728000
3731400
3735300
3741300
3745300
3752000
3764500
3768000
3771500
3776500
3781000
3790900
3800400
3833900
3842400
3847400
3864300
3869500
3878600
3882000
3886500
3896200
3900600
3913100
3916800
3929300
3932800
3942400
3954200
3969800
3979500
3982800
3985800
4022700
4033600
4049300
4058400
4061900
4066000
4070200
4073800
4090400
4093900
4100600
4145000
4148500
4152600
4156100
4204800
4223900
4228300
4233300
4237100
4242400
4248500
4254100
4258600
4262500
4266600
4289600
4293000
4310700
4316700
4350400
4359100
4362400
4377200
4384700
4402200
4406200
4418300
4433700
4438700
4447900
4454000
4482600
4490400
4493800
4496900
4518000
4522000
4527900
4533800
4539500
4543000
4546400
4569500
4573200
4614700
4618100
4638800
4642300
4645900
4676000
4680100
4691600
4695600
4706000
4710200
4723000
4742800
4746400
4756700
4765100
4769200
4776700
4812600
4822700
4826200
4834800
4838200
4841800
4876500
4880000
4884100
4888500
4908200
4926600
4930000
4962700
4966800
5001500
5005100
5033700
5037000
5043000
5046700
5051000
5062100
5075700
5080200
5103200
5106600
5130500
5133800
5197300
5201000
5223900
5227300
5230400
5236800
5240600
5250400
5253900
5257200
5269800
5279100
5285500
5289800
5297900
5301300
5311900
5319500
5323900
5328000
5341100
5345000
5349600
5354900
5361100
5371700
5379300
5384200
5398500
5402000
5405800
5427100
5430900
5434800
5448500
5452800
5460900
5470200
5473600
5480600
5484400
5488200
5528500
5532100
5552000
5581000
5587600
5593600
5597500
5600700
5603800
5616900
5628600
5632200
5649500
5655100
5678900
5683000
5687400
5700900
5710000
5713400
5716600
5742300
5752900
5756600
5781300
5787500
5791000
5808100
5826900
5830500
5853600
5877100
5881200
5906800
5924900
5928300
5931400
5935600
5940600
5959300
5989800
6018300
6022000
6030900
6034400
6037700
6041300
6045000
6048300
6051600
6055200
6059200
6081500
6085400
6093400
6131800
6136200
6173700
6177500
6191500
6195200
6198400
6232200
6250800
6254800
6264700
6268200
6271600
6278700
6282400
6306400
6310500
6366600
6383000
6394400
6398300
6416400
6428300
6453000
6470800
6475700
6480000
6484000
6488100
6513400
6546200
6549600
6557800
6561300
6565300
6578700
6582800
6608200
6611800
6631000
6634600
6663000
6667100
6687000
6692800
6709400
6731800
6754900
6767500
6778200
6781600
6784700
6815300
6854600
6870500
6879900
6893600
6909000
6917900
6922100
6925600
6929400
6952300
6956300
6960800
6968800
6972400
6991100
6994900
7008800
7012100
7015500
7019800
7023200
7026900
7034800
7039100
7046800
7057900
7067400
7071200
7098800
7110100
7125300
7128800
7132000
7136200
7139900
7160700
7212200
7215700
7223200
7226900
7247200
7269200
7272700
7276400
7300100
7325300
7329400
7337800
7341300
7350800
7368700
7435100
7442400
7448200
7458900
7463200
7470900
7474300
7498100
7501800
7505400
7512700
7532200
7581900
7594600
7597900
7615200
7628200
7633500
7643700
7650000
7653800
7660200
7689800
7695000
7698500
7701700
7705500
7715500
7719400
7722600
7725900
7729300
7742000
7745600
7752000
7764200
7793900
7799200
7809400
7813100
7822800
7826500
7839200
7844100
7879000
7882400
7885600
7899400
7922500
7925900
7935200
7940200
7970000
7975000
7978900
7982300
7985400
7988900
7993000
7996800
8016900
8043400
8047000
8050300
8054000
8057700
8061100
8082800
8086200
8089700
8100500
8127400
8131300
8143200
8170100
8173900
8186000
8189800
8199900
8209800
8214300
8231100
8234700
8239100
8243200
8266300
8271500
8275200
8280100
8284300
8289100
8296000
8330300
8361800
8365800
8373500
8377500
8381500
8401400
8412300
8431300
8435400
8444500
8466600
8476900
8480400
8494100
8497900
8523600
8527300
8539100
8542900
8548100
8564300
8571800
8577500
8584100
8601700
8610900
8614400
8618900
8625200
8641100
8645300
8654400
8664700
8679300
8688200
8692800
8696800
8703900
8732200
8736200
8751000
8766900
8771000
8774400
8788200
8804500
8829300
8833000
8871300
8875900
8894000
8915300
8918600
8922600
8927100
8936900
8966300
8970200
8975000
8978900
9002100
9025600
9029000
9055700
9083300
9086800
9090000
9093300
9115100
9120400
9126400
9131100
9135100
9141200
9146000
9155200
9159300
9165100
9187700
9192200
9203900
9209600
9231800
9236300
9250300
9254100
9264400
9269300
9277500
9306700
9317700
9332200
9343000
9390000
9393600
9397000
9401300
9422300
9427500
9434100
9447900
9466900
9471100
9491800
9516500
9520200
9532400
9547000
9551100
9561600
9591300
9604200
9611300
9643500
9647200
9650400
9654100
9661000
9664800
9688000
9704000
9708100
9711700
9715600
9742700
9746600
9750400
9769400
9773200
9782200
9785800
9793300
9798800
9814300
9825700
9831900
9837700
9842300
9852200
9856900
9865500
9869400
9876000
9946900
9962700
9977000
9992900


