# repro call number: 0
# mode: 3
# signal: 1
# stimulus file: /extra/setup/oel/stimuli/receptorInfo/gauss_st6_co200.dat
# carrier freq (kHz): 3.53553
# stimulus length (msec): 1000
# pause between stimuli (msec): 700
# length of ramp (usec): 1000
# desired firing rate (Hz): 100
# standard deviation (dB): 6
# cut-off frequency (Hz): 200
# repetition number: 0
# duration (msec): 1000
# intensity (dB): 79.3939
4400
6400
9500
11700
13600
22600
24600
27600
35100
44800
49300
58400
65600
78300
80500
83800
90800
101500
104000
126400
143200
145200
147300
157600
180600
198000
207800
211300
216300
218600
230100
253200
267100
283300
285500
297200
300100
303000
305400
310300
325700
335400
341700
350300
359100
361300
366600
368900
384400
394800
397100
401600
415800
418100
425800
453900
456100
459300
461800
468600
477900
480100
487200
495200
511600
528200
546300
548600
552900
555100
561700
581900
588200
609200
612900
624600
629400
632000
657700
670700
673400
680400
687900
703100
713900
716100
727800
738400
740600
742700
746600
756700
768600
788800
791000
799300
811100
825700
833800
847200
855700
864300
891500
901400
904000
926900
934300
937300
955900
958200
964900
971100
976500
1000200
1006500
1022600
1027900
1063300
1066700
1077400
1079700
1082400
1085700
1093900
1114000
1133600
1150200
1152600
1155800
1173300
1185500
1189900
1196300
1209300
1221400
1232300
1238400
1242400
1244900
1253500
1256000
1272300
1288000
1290700
1294000
1296400
1309600
1311800
1314100
1336500
1343700
1363400
1381500
1390700
1393100
1397300
1409800
1412200
1417900
1428400
1449300
1464600
1476100
1478400
1485300
1487800
1497900
1530900
1540300
1546500
1552000
1579100
1591000
1593300
1595600
1625100
1632600
1637200
1639400
1655100
1660000
1662600
1670600
1676900
1690400
1703100
1705400
1719300
1731500
1735800
1740900
1743400
1754600
1757400
1767700
1778800
1812400
1824200
1831800
1836100
1853000
1856300
1875000
1877400
1888600
1898200
1912500
1915300
1932600
1935100
1948000
1958200
1963900
1969100
1999500
2014200
2016500
2027800
2031800
2035300
2052300
2065600
2070700
2081100
2083500
2087600
2097600
2107800
2112500
2114900
2133200
2135600
2168900
2180300
2194000
2210300
2233800
2242300
2255000
2257900
2263900
2275800
2278900
2281000
2293500
2300200
2316000
2344000
2346400
2368700
2371000
2375800
2381100
2399700
2402500
2410500
2431900
2440100
2452100
2457800
2478700
2481900
2491400
2495500
2498200
2509300
2517500
2525000
2561600
2576500
2586500
2589800
2592900
2597700
2600000
2611300
2625000
2627600
2637700
2647900
2659200
2672500
2695300
2697600
2711600
2737600
2739900
2749100
2754400
2766600
2774100
2795100
2806700
2821500
2823800
2836200
2840300
2842800
2846600
2858100
2877300
2894500
2902500
2913200
2929200
2935400
2937900
2940500
2945400
2955700
2966600
2981600
2994900
3012300
3024300
3042300
3053000
3062900
3087400
3089700
3094500
3101000
3132300
3135500
3151800
3162200
3164700
3185800
3188200
3198400
3210600
3213100
3229300
3233600
3245800
3270800
3276500
3287200
3293700
3320300
3336300
3349200
3366300
3382500
3389500
3399100
3421400
3423900
3428300
3448700
3453700
3468200
3474700
3480100
3492000
3494400
3504300
3535900
3538300
3543000
3551400
3554000
3569400
3577200
3594300
3608200
3618500
3640400
3648400
3659900
3670200
3684700
3687000
3710700
3721900
3743500
3748800
3753400
3766400
3770400
3786600
3801000
3806200
3808600
3818200
3833300
3835800
3841500
3877100
3888500
3898600
3901600
3918900
3953900
3973300
3998500
4003400
4005700
4009500
4044100
4049500
4062500
4064800
4070300
4075500
4085700
4088200
4131200
4168700
4173800
4188900
4191200
4201400
4215500
4221800
4225200
4227500
4232000
4237400
4248600
4252000
4296000
4298400
4302700
4312800
4315300
4324500
4330300
4367700
4390200
4392700
4399100
4404900
4422900
4429400
4444000
4446800
4451800
4462000
4468600
4483200
4488300
4505500
4508000
4521600
4532600
4538100
4555200
4562100
4591000
4597900
4638300
4649800
4669800
4672300
4685500
4712200
4714500
4726600
4737900
4740600
4744100
4760000
4770100
4790800
4794200
4801000
4806400
4808700
4821100
4832900
4850800
4870900
4880600
4883000
4898500
4900900
4907600
4923400
4931600
4979100
4986600
4994300
4999600
5002000
5022300
5031100
5033900
5055900
5058300
5072200
5085200
5087700
5091300
5093800
5110500
5113100
5136100
5144000
5154200
5164800
5173700
5180500
5204000
5216400
5222600
5240700
5243400
5255600
5275000
5283700
5292300
5299300
5302400
5324200
5332000
5346300
5362200
5364800
5370100
5384000
5394100
5419100
5421500
5431300
5435600
5438000
5452500
5458000
5470100
5474800
5479800
5494700
5510800
5518000
5527400
5529800
5558900
5566100
5575500
5641800
5644200
5648300
5651900
5654200
5659000
5679000
5687200
5689600
5702500
5704900
5707300
5729200
5753800
5756400
5761800
5764400
5769100
5771500
5800600
5807700
5826200
5831800
5834500
5841900
5847400
5849900
5860100
5869800
5883900
5897700
5919200
5921800
5925800
5936700
5959200
5962100
5990900
6006000
6008400
6028600
6034300
6050100
6054400
6063700
6070900
6093000
6095400
6107300
6119700
6146200
6160000
6187700
6190400
6197300
6204500
6207200
6218500
6221200
6246100
6255300
6266900
6272200
6274600
6294600
6310800
6313400
6333500
6336000
6346800
6399600
6405100
6415400
6424700
6435200
6441400
6464300
6470100
6476600
6503800
6541300
6547800
6555800
6562000
6568700
6576000
6581900
6612400
6632600
6635100
6640600
6652800
6658300
6686200
6708200
6718700
6750300
6756900
6763100
6765800
6780600
6786300
6793200
6808100
6812500
6832000
6837300
6839700
6849900
6870000
6873000
6876500
6893100
6895700
6906800
6929900
6938300
6941100
6979300
6982000
6989800
7007000
7009800
7014900
7021300
7026600
7062400
7068700
7074000
7117500
7126200
7140100
7150900
7170400
7191200
7228500
7230900
7235200
7237900
7242300
7248800
7255300
7258500
7305900
7322100
7324700
7339500
7345600
7350200
7361300
7369800
7372200
7405600
7418100
7426900
7448200
7464000
7478200
7480600
7486200
7497800
7502900
7513100
7518700
7524000
7533000
7539700
7549600
7556600
7562900
7577400
7591000
7593600
7598100
7619900
7627400
7639200
7664700
7681100
7685900
7699800
7705700
7712500
7715000
7725100
7745300
7753700
7784000
7790000
7816000
7820900
7828500
7857900
7860700
7863100
7865500
7870200
7901200
7911600
7916000
7922000
7932300
7942100
7957500
7965900
7981800
7985000
8012000
8014700
8022800
8025400
8042900
8080400
8087900
8101200
8113600
8119600
8127900
8138600
8150900
8158500
8168300
8173900
8195100
8203900
8206900
8226900
8239800
8245100
8247800
8275400
8292000
8294400
8296800
8306700
8323200
8344800
8347900
8356800
8366800
8383700
8387000
8394400
8412400
8417400
8421300
8458500
8477600
8482100
8484400
8495900
8498300
8500600
8503600
8524500
8551100
8556900
8567800
8589500
8612200
8618200
8622900
8637200
8657100
8664900
8678200
8690400
8693200
8700800
8706900
8722600
8731000
8742400
8749100
8751600
8764300
8770900
8779900
8782300
8822600
8824900
8838700
8845900
8859500
8867300
8871300
8894000
8916300
8921600
8927400
8936300
8943700
8962100
8968700
8995300
8997600
9003100
9005500
9016800
9046800
9049300
9059200
9064400
9068100
9070600
9080200
9115200
9117900
9132400
9146900
9176300
9179600
9182100
9194100
9197400
9200300
9205300
9207800
9212600
9234600
9238000
9247400
9250100
9256400
9264600
9274300
9285000
9301800
9306200
9308700
9347500
9367800
9395600
9406500
9418700
9421100
9436200
9448700
9451100
9460900
9463400
9475300
9478000
9491700
9517200
9532700
9561400
9575800
9578800
9586100
9589100
9597800
9610900
9616900
9628300
9642900
9663400
9680700
9692000
9710100
9727100
9729500
9739400
9765400
9778000
9793000
9820700
9846300
9857500
9873800
9876300
9896100
9910400
9912900
9915500
9921300
9926300
9929100
9933300
9942900
9945700
9954400
9962000
9975600
9978000
9996100
9998600


