# repro call number: 0
# mode: 3
# signal: 2
# stimulus file: /extra/setup/oel/stimuli/receptorInfo/gauss_st6_co1600.dat
# carrier freq (kHz): 3.53553
# stimulus length (msec): 1000
# pause between stimuli (msec): 700
# length of ramp (usec): 1000
# desired firing rate (Hz): 100
# standard deviation (dB): 6
# cut-off frequency (Hz): 1600
# repetition number: 0
# duration (msec): 1000
# intensity (dB): 77.8333
5700
7900
9900
12400
14700
19400
24000
29100
39000
46400
53600
57600
63700
65900
81600
87800
91800
110100
117700
122000
124600
132800
139600
143900
160600
165500
169500
176700
186600
194800
204900
212000
226700
230700
251800
274100
286200
291300
295100
298600
313700
319400
327200
338600
344800
355700
359200
366900
371500
385100
396000
405500
415900
421500
448900
461800
471500
485800
490300
496700
507300
520300
528200
535000
539600
548400
562100
568300
576800
581400
593600
598600
614700
625500
646300
654400
666300
671500
679800
694500
700500
721200
729200
739300
746900
755700
761100
766200
783000
804400
815300
825400
833200
836600
841600
848500
853600
865500
869300
872500
876100
884900
890000
897800
913700
922500
929800
933400
942000
948900
960600
986300
989500
993700
998200
1001900
1006600
1012600
1017200
1026300
1035300
1038900
1046500
1055000
1059800
1068300
1076800
1080200
1085700
1102100
1112500
1123400
1126400
1139500
1171300
1180600
1185000
1189400
1200600
1205700
1213200
1219300
1230700
1249700
1254600
1261800
1269600
1279200
1288000
1297500
1309600
1327600
1338700
1353800
1364200
1398900
1409100
1421600
1442500
1453300
1460700
1464700
1468500
1474200
1478100
1503000
1526700
1535400
1547200
1550500
1558800
1565200
1570400
1579200
1589100
1594300
1599500
1615700
1621800
1634200
1647600
1659100
1668300
1673100
1682000
1690900
1696600
1703900
1721900
1728600
1758500
1770200
1775400
1790100
1793700
1817200
1831900
1838100
1846100
1850600
1854800
1868400
1880200
1883600
1905200
1909500
1913200
1937400
1949200
1956700
1970100
1981700
1986400
1989100
1996000
2001300
2004700
2020100
2030200
2038100
2046900
2062300
2072600
2076900
2095300
2103800
2110700
2115700
2118600
2121400
2147700
2163500
2172800
2203500
2213800
2220300
2229400
2233400
2247600
2256200
2263900
2272900
2285900
2294600
2305000
2312900
2322000
2324600
2336800
2351100
2362200
2368700
2377900
2382600
2389000
2396000
2414800
2423100
2431000
2436200
2444600
2456200
2472300
2476400
2480500
2491300
2501300
2504900
2510900
2516000
2531100
2538800
2549400
2554000
2575900
2590500
2595000
2600400
2605400
2624300
2631300
2639500
2647600
2652000
2655400
2663600
2675200
2683400
2698000
2705100
2719600
2722800
2734600
2752100
2761400
2768300
2782300
2791400
2803500
2810900
2817100
2826300
2837400
2849400
2852800
2858300
2879100
2897200
2904100
2927600
2932200
2935400
2943500
2948400
2961500
2972100
2980400
3004700
3012300
3030800
3033500
3036100
3041200
3053300
3065300
3072700
3085400
3094500
3119900
3133600
3138200
3162900
3168000
3173100
3189000
3193700
3197300
3214200
3218600
3226700
3234000
3237700
3244300
3249700
3257400
3262100
3265800
3280500
3289900
3303500
3310300
3328200
3341400
3346200
3363700
3366300
3374600
3393600
3399300
3402900
3430200
3434800
3444200
3469100
3476200
3483500
3488300
3493100
3500300
3513300
3524400
3527600
3537200
3554400
3560800
3564000
3573000
3577600
3586800
3608900
3617900
3624000
3627500
3645900
3649900
3671700
3676500
3689600
3694400
3698700
3710200
3722000
3742800
3746600
3757800
3772000
3774800
3781600
3791800
3798400
3804100
3818900
3831900
3847900
3853100
3865400
3874600
3886300
3896500
3904200
3922700
3936600
3945500
3949600
3971400
3984500
3995600
4002800
4014400
4023300
4029600
4036200
4047300
4054100
4061300
4070200
4075400
4082500
4087100
4106100
4117300
4121000
4150000
4170300
4179800
4192400
4198700
4202400
4207000
4226300
4230200
4233600
4239700
4247800
4255400
4265600
4273100
4299600
4310200
4324800
4331900
4337000
4345600
4351700
4356500
4374600
4391200
4396100
4402700
4410000
4420200
4426200
4434300
4442100
4446300
4467600
4475600
4508300
4532300
4544800
4552700
4562900
4576900
4596000
4607100
4629700
4636700
4646400
4657500
4668400
4683800
4694000
4698600
4704400
4715600
4729400
4734200
4748100
4768200
4776400
4793700
4800400
4812400
4817100
4842800
4856100
4864700
4881200
4890700
4897100
4910800
4913400
4920200
4932400
4958300
4965600
4991900
5004900
5008800
5016500
5037700
5054300
5067800
5073600
5092800
5100400
5105300
5112300
5132300
5135700
5141700
5154600
5169600
5189200
5192400
5198900
5206400
5226800
5242300
5260200
5279700
5293600
5302300
5325400
5333400
5342100
5361600
5371300
5396500
5406400
5420500
5424200
5429200
5443400
5453100
5458100
5463300
5492000
5508600
5522900
5536900
5547600
5585100
5592400
5616400
5631700
5645200
5655300
5662400
5675500
5689000
5694800
5705600
5715100
5720100
5736700
5742300
5751900
5772600
5777600
5785700
5809700
5815800
5818700
5824700
5837600
5854100
5869000
5875800
5891800
5899200
5916200
5919100
5926900
5947100
5958000
5968300
5988500
5994000
5998300
6003200
6020600
6044700
6051400
6056400
6076800
6081300
6094000
6110300
6126100
6130100
6144700
6150400
6160900
6178700
6186400
6194100
6198500
6232900
6240100
6243000
6274800
6289200
6302200
6314900
6325700
6339500
6358200
6362300
6370200
6382200
6397900
6416100
6421100
6436600
6442200
6457300
6461100
6491000
6500300
6506500
6514800
6524700
6529900
6545700
6556300
6561100
6563600
6577100
6584700
6596300
6607100
6640100
6643100
6656200
6675600
6703200
6716800
6733100
6753100
6769400
6774300
6786100
6790300
6799200
6817500
6826300
6841400
6848300
6878300
6896600
6904200
6916500
6924800
6948600
6951600
6977600
6989600
7015100
7029600
7039400
7044700
7054400
7062400
7092800
7101700
7109000
7114200
7123100
7133900
7145800
7150000
7153800
7178800
7186700
7193800
7210200
7214700
7237400
7244300
7265400
7273300
7279800
7285400
7298100
7306200
7345100
7348200
7360500
7378200
7391800
7400100
7415800
7435000
7446500
7475500
7479900
7487800
7498600
7509400
7518000
7532800
7544700
7548000
7557600
7569700
7578600
7593200
7600300
7603500
7618100
7627400
7643300
7650800
7665300
7672100
7694600
7705700
7725900
7743100
7765900
7771000
7783500
7798900
7810600
7825500
7829900
7841500
7856600
7865500
7894100
7909600
7916600
7924300
7943700
7958700
7965000
7982100
8010900
8021100
8024500
8044400
8060500
8071100
8088700
8092000
8110700
8133000
8144000
8157500
8170200
8187100
8191300
8198400
8242500
8255000
8259100
8265000
8277600
8315500
8319500
8328900
8340300
8357000
8368000
8385800
8400000
8409200
8442200
8458600
8467600
8476600
8498900
8507600
8510700
8524800
8535700
8544800
8550700
8570000
8575700
8585900
8612900
8619900
8626900
8635300
8644300
8663000
8680600
8697500
8710800
8716800
8731000
8744100
8773000
8782800
8788100
8791000
8804900
8812000
8820900
8824100
8836400
8854700
8859400
8867200
8888900
8899200
8910500
8917100
8926400
8931200
8946800
8996200
9003500
9027200
9036200
9042000
9050100
9057400
9083000
9092500
9104800
9113000
9125500
9145900
9152500
9169800
9180700
9189300
9195700
9209700
9223000
9241100
9244300
9261700
9281200
9294000
9300500
9329000
9346600
9353100
9366700
9378100
9383000
9388500
9403400
9408100
9413800
9449700
9460300
9463300
9487200
9494900
9503700
9513100
9535600
9554700
9563400
9568100
9590500
9595000
9607000
9612200
9629900
9639500
9680200
9686400
9693800
9697900
9716300
9725100
9747100
9758400
9776600
9794700
9824300
9838100
9843900
9866600
9875400
9887300
9911700
9921800
9938500
9943300
9962400
9969800
9985700
9997500


