# repro call number: 0
# mode: 1
# signal: 2
# stimulus file: /extra/setup/oel/stimuli/receptorInfo/lmd_co200.dat
# carrier freq (kHz): 5
# stimulus length (msec): 1000
# pause between stimuli (msec): 700
# length of ramp (usec): 1000
# desired firing rate (Hz): 100
# standard deviation (dB): -1
# cut-off frequency (Hz): 200
# repetition number: 0
# duration (msec): 1000
# intensity (dB): 89.5763
7700
11000
14100
17100
20100
22900
28200
35500
38800
46200
52000
63900
79200
83900
87300
90800
94200
97800
123200
130000
135200
143800
147200
160100
171500
174900
180100
195400
207800
217100
221000
233500
248300
253100
259000
262600
272800
287200
293600
308800
313700
318900
323300
328000
335500
344100
351400
358400
364400
373400
381000
386300
395400
399500
406900
423000
431400
446800
458000
463600
473700
478200
493100
498900
506100
513500
518000
523500
530900
537700
544300
550400
557000
567800
582800
590300
602500
612300
615900
622300
633700
644400
654800
663100
672600
688800
694000
697500
703500
711000
715700
729800
739500
745700
751100
758500
766600
774800
785100
791500
797000
804700
818400
833700
839700
850400
872100
876000
881200
885400
908600
917200
928800
946200
951000
956700
962700
973000
983100
995700
1009500
1013700
1019000
1037000
1043400
1047100
1051200
1061700
1069100
1077700
1083300
1093400
1110500
1115200
1119600
1131900
1142800
1151300
1155600
1160700
1166700
1177100
1181800
1195600
1200200
1210900
1215200
1219300
1223200
1244400
1248900
1260000
1274300
1287800
1295600
1312400
1317500
1323900
1332300
1340900
1357800
1362000
1370200
1379200
1388100
1399800
1426500
1436100
1440300
1445500
1453900
1459600
1464000
1472600
1476800
1485500
1499200
1505700
1515300
1525500
1532900
1543100
1550200
1554500
1565300
1574900
1580100
1591800
1600300
1616900
1625800
1634100
1641800
1656700
1662200
1673900
1683700
1687800
1696300
1700600
1706500
1711200
1737500
1743900
1749300
1753200
1760200
1768700
1772500
1791500
1802600
1808800
1814700
1827100
1839200
1846900
1858300
1864100
1872600
1889400
1893700
1901600
1906100
1922900
1935300
1941000
1954700
1959200
1969600
1975000
1983700
1995000
2012200
2016200
2029900
2034400
2040300
2045100
2050400
2055800
2061000
2066000
2074000
2080800
2096600
2111600
2118200
2123700
2139200
2146200
2150500
2155200
2158800
2177000
2190400
2198600
2202200
2209500
2215800
2227000
2231400
2235400
2248700
2253000
2272700
2281900
2293600
2303000
2307000
2310700
2316500
2323400
2330200
2337100
2344500
2358100
2362000
2367600
2374400
2382900
2392300
2401500
2408400
2422000
2427900
2441800
2457900
2463500
2467900
2474200
2478600
2487900
2493700
2504600
2509200
2518400
2528500
2532700
2549400
2555100
2565200
2569200
2574100
2593700
2603300
2608800
2615600
2625000
2640100
2646400
2650900
2654500
2675200
2684800
2690000
2696000
2700100
2712800
2723100
2728400
2738900
2746100
2769100
2774700
2782500
2794300
2811100
2815600
2820700
2829400
2833400
2851400
2866100
2880400
2887900
2896800
2910600
2917800
2923600
2932700
2940600
2946900
2955300
2960700
2965700
2971700
2979500
2988600
2996300
3012800
3017400
3034700
3047700
3055000
3064800
3069600
3074800
3085200
3090400
3097000
3102600
3112400
3123100
3127500
3141900
3153600
3164700
3170500
3175500
3180400
3184400
3192200
3211100
3233600
3237800
3249300
3258300
3262300
3270500
3277000
3281100
3289100
3294200
3299000
3305800
3312900
3328300
3339900
3345800
3353300
3361300
3380100
3389500
3395200
3404400
3415100
3423900
3431400
3438500
3444100
3459600
3465500
3469500
3477600
3487800
3497500
3503100
3508400
3513000
3517500
3526300
3533700
3538200
3547600
3551600
3563500
3589100
3604900
3610600
3616200
3621700
3626700
3631500
3637300
3654000
3660500
3665100
3675400
3683400
3689500
3695300
3712100
3723000
3728700
3750800
3755000
3765300
3777500
3783300
3789200
3793900
3804500
3816100
3820100
3825800
3832700
3836900
3849100
3855300
3882400
3887400
3891300
3903600
3917500
3921700
3933600
3937700
3963700
3968600
3981400
3988800
3995800
4003700
4009800
4014700
4031200
4036300
4040500
4052600
4058300
4064100
4074300
4079800
4085100
4090600
4099000
4107200
4122300
4135000
4141700
4152200
4159600
4165900
4178800
4185500
4192600
4214200
4220200
4236500
4254100
4258400
4265400
4278800
4289700
4314900
4320100
4328000
4332500
4336600
4341700
4348900
4361300
4371700
4387800
4394300
4403000
4409400
4430300
4435800
4456700
4469800
4479000
4489900
4499100
4503400
4511000
4515700
4527300
4536400
4540600
4548400
4557600
4563700
4571500
4581700
4590700
4595600
4600600
4612800
4619100
4634100
4641000
4647400
4653700
4660600
4675100
4683000
4694000
4698800
4727000
4731300
4735800
4740900
4747200
4757900
4763500
4773600
4782100
4789500
4804800
4820900
4825600
4842700
4866800
4873500
4879200
4888400
4893800
4901700
4912000
4921400
4927000
4932600
4947500
4952600
4963800
4970300
4975000
4979200
4984600
4991600
4996700
5001300
5011400
5018100
5032500
5037100
5042100
5057900
5063800
5074800
5079300
5084500
5095800
5103100
5112600
5120400
5126800
5130800
5140500
5147900
5153800
5160700
5168800
5176000
5183900
5203300
5210200
5229700
5235700
5240600
5246700
5251500
5256100
5266900
5274400
5289400
5301400
5307600
5312400
5318200
5325900
5333000
5344000
5363600
5368300
5376700
5385200
5389200
5402100
5409000
5418500
5427200
5438400
5445000
5449900
5464700
5474600
5479500
5485200
5491600
5507900
5513800
5525700
5531600
5545100
5549600
5554300
5558200
5570300
5589500
5596200
5604400
5610200
5631300
5642600
5660100
5667300
5691000
5695200
5699700
5712300
5716800
5722000
5732800
5750000
5755200
5761500
5773000
5783600
5790400
5799200
5812900
5818400
5827500
5833200
5838000
5844900
5852100
5860200
5864400
5872600
5878200
5885800
5892900
5899200
5906300
5914400
5939800
5949600
5954900
5964700
5971400
5992200
6001200
6009600
6017900
6028600
6033000
6040800
6048100
6063200
6072800
6088600
6098200
6103200
6112300
6121200
6126700
6133600
6142200
6159600
6177500
6192700
6196600
6200600
6210900
6220700
6226000
6234500
6244400
6251200
6257200
6266400
6278000
6285500
6291500
6297700
6309000
6331200
6337200
6344900
6357900
6361900
6370300
6378900
6388000
6393400
6398500
6403700
6422900
6430300
6436900
6443100
6450400
6456600
6470100
6476300
6483100
6487100
6502700
6511500
6517400
6528700
6540200
6547400
6563800
6577500
6584900
6589900
6599500
6605600
6614600
6625500
6637300
6644700
6648900
6654000
6662400
6674600
6679900
6685500
6697000
6709000
6719300
6728000
6739800
6747700
6755000
6760500
6769000
6784600
6790400
6800400
6811000
6815500
6823600
6831500
6841300
6850400
6859100
6865800
6873100
6901200
6908400
6921600
6931200
6936300
6955500
6966900
6972800
6979100
7001200
7012300
7016400
7030900
7036200
7043100
7050300
7061600
7071300
7075800
7082600
7087100
7107500
7116200
7127900
7134600
7147000
7152000
7158600
7162800
7170200
7177000
7182300
7190600
7203000
7211800
7217900
7230600
7236700
7246200
7264100
7269500
7277000
7281600
7301700
7312600
7320100
7324600
7346900
7357500
7362300
7367800
7376300
7388300
7404500
7418900
7425200
7429200
7433800
7439600
7454800
7463400
7477000
7485300
7500300
7506300
7511200
7518000
7530300
7535100
7543900
7561800
7568400
7577000
7599400
7604200
7611900
7627100
7635700
7646200
7666100
7674000
7694000
7700400
7705900
7716300
7724200
7731900
7737100
7740900
7758100
7766300
7774500
7781500
7790600
7802800
7807400
7817800
7835500
7844800
7861100
7871700
7878600
7887000
7891600
7900600
7911700
7916100
7944200
7950500
7969000
7974800
7988200
8005700
8009700
8017900
8024600
8028800
8035200
8047900
8058700
8080200
8096500
8102300
8107100
8110900
8118800
8123000
8132700
8142400
8156300
8173700
8197600
8203800
8210300
8220700
8226300
8233300
8242200
8253300
8257300
8272900
8279600
8300200
8306300
8310600
8315500
8320600
8326200
8331700
8344700
8352600
8360900
8373000
8378300
8387700
8395400
8407600
8422500
8432900
8437600
8459700
8470700
8476000
8488200
8498100
8510200
8540500
8545900
8561200
8568400
8593200
8598100
8611300
8618200
8627700
8632200
8646700
8653200
8659200
8664900
8669800
8680600
8687900
8692000
8706900
8711600
8716000
8720000
8729900
8740700
8751200
8761400
8774400
8787500
8792500
8798000
8817400
8837200
8849700
8863200
8871200
8877600
8890000
8894200
8900300
8916000
8925700
8934300
8945000
8950100
8962700
8985000
8990600
9007000
9013200
9030600
9039700
9052200
9057400
9068400
9073500
9086500
9092200
9107400
9127800
9133500
9146500
9182800
9190500
9208200
9220500
9228000
9232500
9239500
9256400
9263900
9277000
9285400
9301200
9309700
9313600
9344600
9363500
9369400
9374900
9390800
9396800
9401500
9409400
9415500
9426000
9431100
9440000
9455600
9460600
9466600
9485200
9492800
9499400
9507700
9530600
9542900
9552900
9565600
9569800
9576700
9587100
9594600
9604700
9612900
9633000
9649900
9654600
9671100
9684100
9706500
9711900
9721600
9743500
9749800
9770000
9775400
9784200
9798500
9803200
9820500
9825000
9833000
9838100
9846000
9858900
9867300
9879400
9885400
9900000
9908200
9914300
9924800
9936900
9968500
9975300
9981700
9987800
10002200


