# repro call number: 0
# mode: 3
# signal: 1
# stimulus file: /extra/setup/oel/stimuli/receptorInfo/gauss_st6_co200.dat
# carrier freq (kHz): 3
# stimulus length (msec): 1000
# pause between stimuli (msec): 700
# length of ramp (usec): 1000
# desired firing rate (Hz): 100
# standard deviation (dB): 6
# cut-off frequency (Hz): 200
# repetition number: 0
# duration (msec): 1000
# intensity (dB): 60.8333
5900
13600
19000
25100
30300
36400
45900
53100
58900
68300
80000
85000
91800
97800
104800
128900
139000
145100
147800
151500
163500
170100
183000
186500
193600
201600
210800
214300
217700
243200
260800
269000
285300
298600
303900
306900
312600
317900
337200
342900
352800
361900
367900
371400
387000
396400
399700
404100
412100
418100
427300
432800
441900
456300
460300
462800
473400
479600
482100
487000
493900
501700
526700
537800
547600
554600
557000
562900
583400
593300
599500
606500
611100
615200
624900
628500
632100
668700
673400
681600
691200
704200
714800
719500
730100
740300
742600
757900
769100
790800
793700
799600
803500
812900
826500
841700
848800
852100
857100
863800
866800
889900
894100
899300
904100
921000
928700
937300
958200
960600
965800
972700
979200
1002500
1024500
1029700
1066700
1072500
1079100
1081900
1087400
1094300
1114300
1135300
1142400
1151400
1154300
1169500
1177400
1188100
1193800
1198400
1201500
1210200
1223900
1235300
1244400
1252200
1256200
1267300
1289600
1292400
1296300
1302800
1310400
1313100
1317800
1330700
1338300
1345000
1364700
1371800
1383100
1393100
1399100
1410800
1413700
1418900
1429800
1448700
1477200
1480300
1487100
1508000
1516600
1535800
1543000
1548300
1555500
1591700
1594300
1608900
1626500
1633900
1639100
1641400
1657300
1661800
1666300
1672600
1678200
1692400
1704800
1707800
1721200
1736100
1741600
1745100
1756600
1768600
1780900
1803300
1814100
1826400
1833000
1838700
1854500
1876600
1883200
1898600
1914000
1933500
1936900
1948800
1959900
1965200
1970500
1975400
1986800
2001300
2010900
2016200
2033800
2064400
2073000
2079100
2084100
2086900
2098700
2104000
2110000
2114300
2116800
2134700
2137800
2140400
2170700
2181000
2184200
2213600
2229000
2235800
2244700
2256500
2265300
2279000
2281900
2295300
2301200
2312000
2320200
2328000
2346000
2370600
2375600
2382600
2397600
2401600
2411800
2427700
2433900
2447500
2459100
2479900
2488100
2493900
2498700
2513300
2526100
2528800
2565400
2584300
2588200
2592900
2599600
2612500
2625800
2628400
2649200
2657200
2662900
2697000
2724200
2739000
2741500
2749900
2753800
2762300
2768500
2774900
2799200
2811200
2823800
2833700
2841300
2844200
2848700
2859300
2863900
2880300
2885500
2895800
2904800
2910100
2932700
2937000
2939900
2943700
2947600
2957300
2968900
2984000
3001900
3013300
3020100
3035200
3039300
3044400
3050600
3060800
3089200
3093200
3109700
3134100
3153200
3163000
3167300
3177500
3186900
3190100
3200300
3210100
3213000
3228900
3235400
3247800
3263100
3271500
3279200
3290600
3295200
3319800
3337700
3352000
3358900
3366700
3379100
3384100
3400800
3408300
3423000
3430400
3451000
3455100
3469900
3475800
3493200
3496200
3506700
3537500
3543700
3553100
3570600
3581300
3595300
3606900
3612400
3620200
3641900
3648800
3671500
3686800
3689300
3705700
3713500
3723600
3745900
3748900
3754900
3758700
3765400
3771500
3790100
3802500
3807600
3810000
3819100
3833000
3836700
3843300
3857900
3878300
3891800
3899000
3901500
3913400
3921300
3931600
3939800
3956500
3970100
4005100
4008500
4011700
4020400
4044200
4063400
4066000
4070000
4076700
4083700
4087400
4089800
4104400
4115000
4118500
4155300
4168000
4172700
4187700
4190700
4196300
4206800
4217200
4225100
4228000
4233200
4238300
4249700
4252500
4266000
4269400
4297200
4299600
4304500
4314400
4324200
4333200
4346600
4394400
4400000
4406500
4425000
4429000
4439300
4445300
4452600
4463200
4469200
4485400
4490100
4500300
4506700
4510100
4523000
4526200
4533600
4539300
4556700
4564200
4573500
4597800
4600300
4605700
4639400
4650000
4658200
4670700
4684300
4708600
4714200
4720400
4727300
4739400
4745500
4754900
4776600
4789700
4796800
4807500
4810400
4822300
4850600
4870700
4881800
4884700
4890800
4899500
4902300
4924600
4931800
4936300
4946100
4959200
4970200
4983500
4994000
5000300
5002700
5005300
5022500
5027100
5032000
5035000
5052300
5057600
5060400
5075400
5086400
5089300
5092500
5095000
5110200
5113200
5120100
5131500
5144500
5156000
5166600
5180500
5192700
5205500
5210700
5216800
5221800
5229000
5243200
5247000
5256100
5263100
5275000
5279200
5285400
5295400
5304300
5319300
5327600
5333700
5345700
5356200
5363400
5366100
5371200
5386200
5396500
5420000
5426700
5432500
5437200
5441200
5448600
5453200
5458700
5468800
5475700
5481400
5496200
5512600
5518200
5528800
5535800
5539700
5543800
5559900
5567800
5576100
5611300
5640500
5644400
5648200
5653900
5661100
5688400
5694300
5703800
5706400
5712100
5755200
5758500
5763300
5770600
5801000
5803900
5808600
5833200
5837600
5843700
5848600
5851200
5861100
5867400
5873600
5884500
5898900
5915800
5921900
5926500
5938200
5959500
5962900
5985400
6007700
6029200
6035800
6052400
6058600
6066000
6072000
6079800
6094800
6098400
6112500
6116100
6122400
6152900
6161300
6170900
6188200
6191700
6199700
6206200
6208800
6220000
6247400
6255700
6268300
6271300
6274300
6276700
6292600
6297100
6303000
6313100
6317500
6330200
6335000
6337800
6348100
6372600
6389000
6400000
6414800
6425900
6436400
6450800
6466300
6470500
6476900
6482700
6495600
6504400
6508000
6533200
6538000
6542900
6550900
6557600
6561900
6570100
6576100
6582600
6597500
6613100
6617100
6634200
6637400
6642500
6654700
6667900
6688100
6705800
6710300
6720000
6727400
6739200
6749500
6757300
6764700
6773900
6781600
6787600
6793200
6797800
6802900
6809400
6814800
6838800
6844300
6851100
6863200
6871500
6877700
6893800
6905100
6909200
6919700
6930400
6939400
6954800
6969900
6980300
6988000
6998900
7008100
7011200
7016900
7022900
7029600
7063700
7068900
7075500
7100600
7109700
7119500
7135300
7142200
7151700
7172100
7174900
7195500
7203500
7209000
7221500
7230000
7236200
7243600
7250200
7257300
7260900
7266700
7275500
7297900
7335600
7341300
7347000
7362300
7365100
7371900
7377300
7389400
7408000
7419700
7429200
7452400
7461500
7465800
7477300
7480700
7487500
7497800
7503400
7511500
7514900
7518300
7525500
7534800
7540400
7546000
7557300
7560600
7564600
7578400
7591400
7593900
7598800
7601900
7606900
7621400
7628200
7640100
7644200
7649900
7659600
7665700
7681800
7690300
7702400
7707900
7713900
7717100
7727000
7747400
7780600
7785700
7792300
7812500
7822700
7832900
7838400
7856200
7860300
7863100
7865600
7868300
7872600
7879400
7897300
7905000
7913200
7917600
7927600
7933200
7938800
7948500
7954400
7967300
7978900
7983300
7988200
8003900
8013700
8023900
8026500
8032800
8041200
8053600
8070500
8081900
8089100
8099800
8106400
8135000
8139800
8153000
8159700
8171800
8175800
8196000
8205900
8211900
8225600
8229000
8241000
8244500
8247900
8282800
8294000
8297500
8308800
8312600
8324900
8332800
8352200
8358600
8368000
8386200
8395300
8417500
8422100
8438900
8460000
8483600
8498000
8500800
8504500
8527000
8537300
8552400
8560300
8570500
8591100
8593800
8600800
8617700
8624500
8629100
8652900
8659700
8666600
8678800
8691700
8702800
8722700
8725800
8732900
8743800
8751000
8758800
8772100
8781700
8785300
8805800
8816000
8823200
8826000
8859800
8867200
8892700
8896600
8922700
8930400
8935900
8964500
8970700
8991600
8997500
9004500
9009900
9018600
9038600
9049000
9053000
9060400
9065800
9069500
9073800
9081200
9085200
9104300
9117000
9120400
9132900
9139500
9149800
9162200
9180200
9182900
9199500
9207200
9213100
9216900
9226200
9236100
9248400
9250900
9258600
9275300
9278200
9289000
9305100
9308200
9310600
9318900
9346100
9349800
9368600
9376000
9392900
9397400
9407200
9410500
9420500
9435700
9447400
9452000
9462400
9473900
9477900
9487100
9492800
9515900
9522500
9537000
9579500
9596100
9610500
9618300
9627000
9644000
9646800
9654400
9666400
9682500
9694500
9723400
9729000
9734200
9741600
9767800
9778800
9794800
9822700
9837400
9848400
9856000
9861200
9873100
9880300
9899400
9911700
9915400
9922000
9928600
9934500
9944900
9954900
9963300
9969900
9977500
9998300


