# repro call number: 0
# mode: 3
# signal: 1
# stimulus file: /extra/setup/oel/stimuli/receptorInfo/gauss_st6_co200.dat
# carrier freq (kHz): 5
# stimulus length (msec): 1000
# pause between stimuli (msec): 700
# length of ramp (usec): 1000
# desired firing rate (Hz): 100
# standard deviation (dB): 6
# cut-off frequency (Hz): 200
# repetition number: 0
# duration (msec): 1000
# intensity (dB): 70.4167
6900
9200
11600
15100
24800
27500
37800
42900
46700
49900
52900
55700
60500
63300
68600
74800
80700
83400
87500
93200
105300
116700
129200
135900
145700
148100
184200
190100
195400
199800
210100
213500
216200
219300
244400
256300
259900
269500
285700
299400
302000
304700
327600
336700
344000
346900
353000
362100
368700
371500
374300
387900
397500
400200
403500
418600
428000
430600
435800
441500
450400
457400
461400
464200
468600
475400
479900
482700
489000
496900
504800
529100
537100
549300
554700
557400
563700
584500
587200
589900
611300
615400
627500
632000
658700
667800
671800
674600
683000
690000
704700
716700
719400
722800
725600
740900
743800
770500
791200
793900
797000
802600
814100
828000
834700
837500
848800
851600
857800
864400
867300
892600
904500
907500
918900
929800
936200
939400
958500
966900
972500
979000
981900
1002400
1007700
1016000
1030000
1056300
1065800
1070200
1073700
1080800
1088500
1095600
1114000
1135900
1139700
1143100
1147900
1152800
1158500
1177800
1186100
1192400
1198300
1206000
1212600
1234900
1239800
1244700
1255900
1274600
1286300
1290700
1296100
1303900
1311600
1316500
1339300
1366100
1375600
1384900
1389800
1393600
1400200
1411800
1419600
1431000
1443800
1467500
1478000
1487500
1499700
1512400
1517300
1533900
1544000
1549000
1554900
1583000
1593000
1611000
1626800
1629900
1639500
1657500
1662200
1665600
1671800
1679600
1685500
1692600
1705600
1716300
1737200
1743400
1756800
1815000
1826700
1834400
1841900
1856300
1869100
1877600
1884200
1910800
1915000
1935100
1950100
1954200
1961200
1971000
2001600
2017100
2030200
2034000
2047100
2068600
2079500
2083500
2100400
2109700
2116200
2134700
2139900
2171900
2175000
2182400
2192900
2230100
2235900
2247300
2256300
2265600
2278900
2284000
2294100
2302800
2318700
2346500
2356300
2367500
2371700
2376600
2383600
2391500
2402100
2413600
2434700
2442100
2460100
2481400
2492600
2497000
2502000
2511300
2527500
2546600
2564100
2578700
2588900
2594200
2600000
2607500
2613900
2625000
2640300
2650000
2658300
2663300
2676200
2692600
2697800
2739600
2750500
2755600
2769000
2797100
2811800
2817400
2824100
2832900
2837000
2842900
2848400
2860700
2869700
2879200
2890800
2898600
2915300
2938100
2947900
2957100
2962200
2969100
2983400
2999500
3014300
3026300
3031600
3038800
3043500
3061500
3065100
3081300
3089800
3096400
3109200
3114800
3136000
3161500
3164900
3169800
3179700
3188000
3191500
3200600
3213300
3230100
3236400
3247900
3262300
3276600
3287400
3306800
3338900
3352400
3358600
3362600
3369300
3383700
3391800
3397600
3403800
3421900
3429900
3450700
3455900
3471200
3477200
3483200
3489900
3494400
3507400
3511000
3514800
3519400
3538200
3545700
3554500
3561200
3570500
3580300
3589200
3596500
3611700
3621800
3644100
3649500
3654800
3663000
3673200
3686800
3712500
3723900
3730200
3746700
3755200
3767400
3772100
3803500
3809000
3820000
3836700
3843400
3878800
3889900
3900400
3904000
3921900
3934600
3957300
3975800
4005500
4011600
4064300
4073100
4076900
4087000
4104900
4133500
4175900
4186400
4191300
4195800
4204000
4218100
4225000
4234700
4239900
4250600
4265400
4282300
4297600
4305300
4314900
4322700
4326700
4331800
4393100
4401900
4407900
4426000
4431600
4446700
4454400
4464500
4470800
4476100
4487500
4491000
4507500
4534800
4538300
4541800
4557800
4565400
4590800
4601000
4625400
4641200
4651900
4664500
4672000
4685700
4698400
4715000
4728500
4740200
4746400
4760700
4795600
4802600
4809300
4835000
4848500
4872900
4883100
4895600
4901200
4909900
4925800
4932600
4938800
4980500
4986500
4997000
5002100
5025700
5032600
5037700
5058300
5073000
5085100
5090700
5095600
5112800
5138300
5144900
5157300
5166100
5176200
5183600
5206800
5217200
5245100
5249200
5256700
5264400
5277200
5287100
5293000
5301100
5324500
5361500
5371700
5387300
5397800
5422000
5428500
5433700
5439100
5448800
5453800
5460000
5469800
5476700
5483200
5496600
5513100
5518900
5530400
5534500
5546300
5561800
5569400
5576800
5644900
5650400
5654800
5661900
5680800
5687800
5705300
5711000
5732400
5752200
5757100
5763800
5770900
5785200
5802300
5805900
5811400
5833500
5841000
5844700
5849800
5862800
5868700
5873800
5885000
5917700
5923000
5927300
5940800
5945400
5961600
5989700
6008600
6030600
6036500
6056700
6066600
6073800
6077600
6095900
6102400
6111500
6121600
6143200
6162800
6189600
6199300
6206700
6210300
6221400
6248100
6253400
6272800
6278200
6297200
6312700
6335900
6348800
6370500
6401100
6407100
6424800
6437600
6443200
6467100
6472500
6476900
6480500
6504100
6524500
6543900
6550800
6557300
6563700
6570700
6577800
6584900
6592400
6597900
6605400
6614100
6625300
6634600
6642200
6655700
6659600
6695200
6704100
6712100
6720400
6765200
6778400
6783000
6787900
6791500
6795600
6801000
6814000
6833600
6839600
6852300
6871900
6878100
6895700
6909400
6931800
6937700
6942100
6951400
6982000
7002200
7009400
7022700
7029900
7034500
7064700
7076500
7091500
7116000
7138000
7141700
7153400
7172800
7194500
7203400
7211400
7229900
7237600
7244300
7253000
7259800
7295700
7301200
7308100
7326000
7332400
7337700
7347100
7352400
7363900
7371600
7407300
7419200
7466400
7481500
7498400
7504900
7515400
7520600
7526000
7534000
7541200
7545100
7552200
7559500
7565100
7593400
7600600
7621200
7630100
7641500
7666600
7682400
7688400
7702100
7708600
7714500
7722500
7727700
7747300
7787700
7793500
7823100
7829500
7834500
7855700
7860500
7864200
7872500
7898700
7903700
7908900
7918000
7923500
7933400
7943900
7948000
7954700
7958900
7975000
7984800
8014800
8024700
8075500
8084500
8090000
8101900
8108300
8141300
8144900
8152700
8161000
8171900
8177600
8197100
8206600
8214100
8229800
8242800
8247400
8274800
8294800
8305000
8309500
8325500
8347000
8353400
8359000
8370100
8387200
8391600
8396800
8404700
8418700
8478900
8484600
8499100
8504700
8513800
8523100
8536500
8553700
8569800
8590400
8596000
8600100
8615500
8620900
8625900
8654500
8659900
8667800
8680800
8693000
8708500
8724400
8728100
8732900
8746700
8752000
8766500
8781800
8795800
8824200
8829900
8843300
8854600
8861700
8873200
8893100
8897500
8919200
8923700
8929300
8937100
8946000
8964000
8997900
9005300
9018500
9049700
9053600
9062700
9067600
9073300
9082800
9117800
9123100
9135500
9178500
9184600
9198500
9208500
9214700
9229400
9237100
9241200
9249600
9259100
9266500
9278300
9287000
9293600
9298200
9309000
9313900
9339600
9350000
9370000
9397500
9408600
9414500
9420400
9452000
9463700
9478100
9492600
9519100
9534300
9542400
9563600
9579400
9589600
9597400
9619500
9632300
9645700
9665900
9685400
9695000
9721000
9730200
9737300
9747400
9768800
9796700
9808000
9823400
9834800
9860400
9865600
9877300
9913400
9923800
9928600
9935100
9945100
9955900
9963800
9968700
9978100
9999500


