# repro call number: 0
# mode: 2
# signal: 2
# stimulus file: /extra/setup/oel/stimuli/receptorInfo/gauss_st3_co200.dat
# carrier freq (kHz): 3.53553
# stimulus length (msec): 1000
# pause between stimuli (msec): 700
# length of ramp (usec): 1000
# desired firing rate (Hz): 100
# standard deviation (dB): 3
# cut-off frequency (Hz): 200
# repetition number: 0
# duration (msec): 1000
# intensity (dB): 74.7115
6000
9300
12200
15400
22800
27700
33500
39000
48400
54000
72400
76000
79800
88300
91500
100600
105900
110900
126500
144000
148700
158200
164900
168800
180800
188000
193500
198100
209100
219300
227600
235300
243000
248600
257500
268100
275500
280200
286600
291800
297000
301300
305500
311700
320800
330400
337000
346300
354800
372000
381300
389700
396200
401400
406900
411100
422200
429600
435600
454400
462600
479900
485100
490400
505500
512200
516800
523400
544700
553000
559400
569700
585100
591200
597200
605000
613500
618000
625400
637100
641500
646200
652500
657200
662000
670100
677700
684400
695000
699700
710000
717800
729900
739600
749000
756100
762700
770400
779600
784000
799900
805000
814800
826200
832200
839000
846100
862500
867500
873700
884500
907800
918000
921600
939100
951500
956500
961100
974600
980500
987300
993600
998100
1011000
1019000
1029400
1034400
1042100
1055600
1063500
1068400
1076900
1088200
1109400
1115200
1120700
1125800
1133100
1141500
1157000
1162700
1167000
1175600
1183000
1190800
1196600
1211400
1220600
1224200
1235000
1243400
1246900
1257900
1267500
1272100
1284600
1298600
1303100
1317200
1325500
1345000
1351200
1355600
1362100
1370800
1376400
1388300
1395500
1410800
1419500
1440200
1444900
1450500
1460200
1476500
1491600
1501900
1510400
1514300
1519700
1526200
1532000
1544100
1556000
1564900
1575400
1582300
1602000
1612000
1623700
1629700
1643000
1656300
1662100
1668300
1679300
1684000
1691000
1695200
1715900
1726800
1737100
1746600
1753400
1761700
1767000
1774200
1777800
1791100
1797300
1804100
1809500
1828700
1843800
1847800
1862600
1870000
1882800
1890500
1898300
1911400
1914900
1929800
1938500
1952100
1958300
1974700
1998300
2014000
2022400
2029100
2037200
2051500
2069400
2079900
2086700
2093000
2104100
2117400
2131000
2143300
2155000
2164900
2176200
2182200
2187200
2198500
2208200
2225200
2237100
2247300
2255300
2266200
2289100
2293200
2308300
2319500
2336200
2344600
2354900
2383000
2391100
2396800
2409300
2413600
2429600
2434300
2449300
2458100
2463200
2484100
2496500
2510400
2516000
2533700
2543100
2549900
2558600
2564900
2575400
2591500
2596700
2613000
2629900
2636300
2650900
2664400
2672400
2679200
2695200
2700100
2715800
2721200
2739100
2744100
2759400
2765800
2791500
2808500
2821100
2834400
2850300
2855700
2866700
2882300
2888900
2900700
2911900
2924800
2936600
2944700
2952300
2971900
2989000
2994200
3001700
3007300
3017300
3030900
3035300
3041200
3052200
3067000
3075100
3082300
3086600
3102900
3108700
3122300
3136000
3140500
3152800
3168600
3182300
3201900
3214500
3219300
3234700
3255900
3268600
3290200
3309200
3319800
3333900
3340900
3357000
3367900
3392800
3403500
3410600
3416900
3422900
3433400
3446700
3464600
3485300
3489100
3506800
3513900
3518100
3527600
3540300
3560300
3565200
3577700
3581900
3600300
3613900
3640400
3659800
3670100
3684400
3689500
3696100
3707200
3718600
3731100
3747900
3753700
3767100
3774100
3781600
3794600
3808100
3814500
3822200
3831100
3839500
3854600
3865700
3870800
3882100
3911600
3922100
3941500
3955900
3961200
3970900
3981100
3989000
3996400
4006600
4018600
4029800
4035100
4042600
4057900
4068200
4075200
4082600
4091700
4113300
4124500
4131000
4144900
4152000
4163400
4172700
4186300
4200400
4211400
4220600
4227800
4233000
4240100
4247100
4261600
4280500
4294000
4301300
4308000
4322700
4327500
4334800
4344500
4358200
4363000
4376200
4385400
4394300
4408700
4427200
4443300
4448500
4469300
4479800
4487400
4498200
4509300
4521400
4527000
4534600
4540400
4549100
4554400
4560800
4587900
4594100
4600800
4613700
4620300
4624700
4635500
4651100
4659500
4667100
4705200
4717100
4729400
4740000
4744600
4751600
4769100
4785300
4807100
4816200
4841100
4847600
4858400
4862700
4874300
4891800
4898100
4903500
4909400
4921900
4928900
4951300
4960200
4983400
4998800
5007100
5023200
5029500
5034400
5046400
5063000
5067800
5093100
5101000
5108500
5129600
5140200
5158400
5162900
5169200
5184200
5199200
5210100
5215200
5224300
5246300
5250100
5264500
5285400
5293400
5316200
5323600
5329700
5335700
5346100
5355400
5370000
5382600
5391900
5399300
5405000
5415600
5424800
5430100
5435800
5451200
5462100
5470100
5487700
5507900
5514000
5528600
5541200
5551900
5569200
5579200
5587400
5599800
5616700
5628600
5644800
5649200
5665300
5670700
5677900
5695400
5705500
5711200
5747300
5763400
5768800
5788400
5800700
5807200
5828300
5840900
5848100
5855100
5874800
5882400
5890400
5896400
5910600
5932900
5944000
5955300
5968600
5975000
5989700
5997600
6004200
6022600
6048100
6055100
6059300
6065700
6077200
6083700
6089200
6106700
6126900
6140800
6154200
6163200
6171000
6181900
6196800
6202300
6220800
6226800
6241200
6254300
6268400
6281000
6288600
6298300
6302900
6323300
6328900
6332800
6344200
6358600
6365900
6390200
6410300
6420400
6424700
6431300
6438000
6452600
6467000
6474500
6492500
6509100
6530800
6540400
6563700
6583800
6601100
6614700
6631600
6638000
6648100
6655800
6666900
6686500
6705800
6710600
6720500
6731500
6746200
6752200
6760300
6777600
6791800
6814100
6820100
6827100
6836000
6839700
6855700
6868600
6888500
6900400
6907600
6921800
6939200
6950100
6957300
6965500
6982100
6990800
6996400
7008100
7014600
7032500
7054100
7066800
7078100
7091200
7103300
7113600
7123600
7137300
7150800
7160600
7171800
7180400
7186000
7197800
7206800
7217400
7232800
7251500
7264500
7269600
7283500
7289600
7295700
7308600
7318600
7326400
7330200
7345500
7351400
7381300
7389400
7410000
7426000
7441000
7451900
7463500
7475400
7482900
7487300
7493000
7508400
7530000
7534400
7545300
7555700
7565800
7574900
7583100
7588200
7602000
7613900
7620900
7630400
7651500
7669500
7675300
7689600
7705700
7723500
7737900
7745600
7752600
7761400
7779400
7786700
7796100
7802700
7813400
7828600
7833100
7837300
7851900
7858700
7865500
7880600
7886500
7900700
7907100
7918300
7936600
7948000
7955200
7964100
7981300
7998800
8016400
8026800
8049000
8057700
8081800
8089000
8093200
8100300
8113300
8124500
8131000
8148500
8160800
8169400
8176000
8182300
8194500
8203200
8211700
8227800
8232400
8252600
8263100
8274800
8279800
8285500
8300400
8313100
8323300
8339800
8349700
8365000
8377100
8384700
8398200
8413300
8421800
8428000
8442200
8448900
8458500
8468300
8485300
8497000
8520900
8525800
8534200
8541200
8562000
8568100
8573600
8592000
8612100
8630000
8635200
8655700
8661100
8666800
8677500
8693700
8698400
8704300
8715700
8734500
8743800
8761900
8780100
8783900
8801000
8810000
8822500
8831200
8839300
8872500
8877300
8901700
8906100
8927900
8933800
8953900
8964000
8989400
9002400
9006600
9011500
9027200
9040300
9047100
9054200
9061200
9067500
9080100
9086200
9106600
9116900
9122000
9130300
9152900
9158800
9163500
9169400
9180100
9197200
9219700
9231100
9238900
9259900
9270200
9276900
9286300
9303100
9316100
9331000
9336000
9347100
9352200
9365800
9374300
9395800
9402100
9418600
9432900
9447000
9452600
9462000
9479100
9487300
9502100
9514700
9520400
9532300
9546300
9558600
9587400
9602600
9609700
9614800
9635200
9642900
9652600
9662200
9694500
9702100
9710800
9737400
9748300
9755900
9764500
9774200
9779500
9789000
9801000
9808900
9826800
9841900
9849100
9859100
9877700
9885400
9898400
9919000
9925500
9932600
9939900
9946000
9958900
9973100
9981300
10000000


