# repro call number: 0
# mode: 2
# signal: 1
# stimulus file: /extra/setup/oel/stimuli/receptorInfo/gauss_st6_co200.dat
# carrier freq (kHz): 3
# stimulus length (msec): 1000
# pause between stimuli (msec): 700
# length of ramp (usec): 1000
# desired firing rate (Hz): 100
# standard deviation (dB): 6
# cut-off frequency (Hz): 200
# repetition number: 0
# duration (msec): 1000
# intensity (dB): 59.8837
1100
6400
9100
13100
16100
24100
26900
29600
38800
46400
49900
59600
67300
72100
80300
83400
87700
92100
104600
113800
128900
135800
144700
147500
158900
182200
190500
199100
206700
209700
213500
217100
219900
223700
248300
264200
269100
278600
285100
298800
302600
305700
311300
326000
336500
342900
346100
352800
360900
363700
368700
383500
388300
396900
399700
402700
407900
412200
417700
423900
428200
436500
455600
460800
463700
468200
475900
479600
482200
488300
496600
503500
524600
537100
547200
553700
556600
562700
565700
583900
590900
608900
612900
626400
633000
660200
670900
674400
677700
682600
689100
704200
715300
718300
723000
739800
742800
754800
760300
769600
790400
793100
795800
800700
804100
813000
822300
828800
835700
849300
856400
860400
865000
868200
875100
882000
891900
903300
913500
922800
929000
935500
938800
941800
958200
970600
973900
979000
990100
1002500
1013700
1023400
1029900
1041900
1054200
1066300
1070400
1074400
1079800
1082700
1087500
1090400
1094500
1136300
1152100
1155400
1158400
1190200
1193100
1197900
1204600
1211200
1240000
1244200
1247000
1254700
1257800
1267400
1276400
1284700
1289900
1293000
1296400
1299200
1302900
1310700
1313600
1316800
1320200
1338800
1345400
1362900
1392800
1396500
1400100
1405100
1412200
1415400
1419000
1430900
1449700
1477400
1480300
1486900
1500500
1515400
1533600
1543500
1548000
1554500
1586200
1592900
1604400
1609900
1623000
1628500
1634800
1638800
1641500
1645300
1656600
1662300
1670800
1678200
1692400
1699900
1705300
1708600
1714500
1721000
1726900
1732900
1742700
1746000
1755700
1758700
1769800
1781100
1785100
1788300
1803000
1813900
1826800
1832800
1836700
1843400
1856000
1877400
1889600
1899400
1909700
1914500
1934200
1941300
1947900
1951600
1957600
1961400
1970500
1973700
2001700
2008900
2016200
2019100
2033400
2036500
2047000
2056500
2066600
2073900
2078900
2083600
2087600
2098800
2101900
2105000
2108000
2110700
2114500
2117400
2126600
2134900
2138500
2157500
2171500
2174800
2181500
2186400
2191900
2212500
2238600
2246100
2255400
2258500
2263100
2266800
2277400
2281200
2284200
2289500
2294400
2302400
2313800
2319500
2330600
2342800
2347200
2356100
2370600
2375900
2382700
2391300
2401100
2404200
2411700
2414700
2432800
2437500
2441700
2454000
2459600
2464200
2476800
2480800
2485400
2491700
2497800
2501000
2511000
2521500
2526900
2563500
2578500
2583600
2588300
2592200
2595300
2599800
2602700
2606500
2612800
2616100
2624900
2628200
2637500
2649300
2656100
2663000
2697800
2700800
2704300
2715900
2722300
2738700
2742000
2750600
2756200
2759800
2768400
2774900
2786500
2796100
2808300
2823200
2826800
2837200
2841700
2848400
2859400
2870000
2895700
2915300
2936500
2939600
2942400
2947900
2956900
2960000
2963500
2970000
2982400
2996800
3014800
3025600
3029000
3042600
3051200
3060700
3073500
3081400
3089100
3095100
3106600
3113100
3120700
3135500
3151600
3163500
3167000
3186500
3189600
3199200
3212600
3228900
3235000
3252600
3260600
3270300
3278900
3285400
3289900
3295400
3307700
3316400
3338100
3349600
3357900
3372500
3384600
3395000
3400200
3405400
3423000
3426900
3430600
3436200
3444900
3454700
3470000
3475700
3482400
3493400
3506800
3512400
3516700
3537400
3540500
3545400
3553100
3570900
3579900
3587400
3596600
3609400
3612600
3642300
3646200
3649500
3652700
3661500
3672300
3677800
3684100
3687600
3706000
3712100
3723800
3733100
3746200
3750100
3755600
3766800
3771200
3774400
3778400
3787200
3793900
3804500
3808200
3811100
3819700
3822800
3836000
3839200
3843600
3846800
3856500
3873400
3883700
3891100
3899300
3915400
3920500
3923800
3939100
3945800
3956400
3963500
3971300
4000900
4005400
4008500
4011700
4027200
4044800
4063800
4069600
4076100
4083800
4088100
4091100
4096900
4103300
4117200
4131800
4135400
4154700
4171200
4190700
4198200
4203200
4210500
4217500
4224300
4227700
4230600
4233900
4238600
4241700
4249100
4252100
4263200
4282100
4288900
4297500
4301600
4305400
4314900
4319700
4324600
4328000
4348200
4369100
4388300
4392300
4395200
4401200
4406400
4414800
4428800
4446100
4452900
4464100
4469800
4479500
4490800
4500900
4507200
4510400
4524000
4534300
4539100
4557100
4564100
4592600
4599700
4612700
4638900
4642000
4650400
4662400
4671600
4684900
4689000
4710600
4714700
4717500
4729200
4740000
4744300
4751300
4760200
4770700
4794900
4798200
4802700
4808900
4822100
4835700
4851300
4882100
4887900
4895300
4900200
4903200
4908100
4911300
4924800
4933300
4946200
4968800
4981100
4988500
4997600
5001700
5004600
5018000
5023900
5032400
5035400
5040400
5056200
5059700
5062800
5073700
5081300
5087800
5091300
5094400
5097300
5112300
5116000
5137200
5144800
5156600
5159700
5163000
5172700
5177100
5193900
5205800
5217500
5224000
5242800
5252800
5276800
5285000
5288600
5295500
5303300
5306800
5325700
5333300
5347000
5350200
5364600
5371200
5375000
5386500
5395200
5420900
5427400
5436800
5439800
5448500
5452900
5458000
5461300
5469900
5475800
5479300
5483200
5496400
5500200
5517600
5528700
5531800
5541300
5550400
5560400
5567800
5574400
5577800
5586900
5634200
5643700
5648700
5653600
5656800
5662900
5678000
5688800
5692200
5704600
5707700
5742500
5755400
5758500
5763600
5766700
5770900
5773800
5783500
5793100
5801500
5809400
5829400
5833700
5836900
5841900
5849000
5852000
5861500
5864900
5871400
5881200
5885500
5910300
5916500
5921600
5926900
5937900
5951500
5961100
5967900
5978900
5986800
5994700
6007300
6029400
6035000
6055000
6058500
6065200
6072700
6077800
6089700
6095000
6098600
6108800
6114900
6121700
6143100
6149500
6155100
6162300
6177100
6182400
6190800
6193800
6199900
6206700
6220300
6229800
6242500
6248800
6254300
6270200
6274200
6277200
6295700
6300000
6312900
6316000
6319200
6335200
6338300
6349200
6375200
6388900
6401400
6410200
6416400
6420100
6424800
6428300
6437200
6442800
6455100
6466800
6472300
6478200
6505800
6544600
6549100
6554800
6558400
6561900
6565100
6570800
6578100
6583300
6587000
6618900
6624600
6630300
6634800
6638400
6642600
6659500
6677600
6693400
6710000
6720000
6734600
6752000
6764500
6769700
6777700
6782700
6788200
6791200
6794400
6798200
6804300
6814000
6830200
6838900
6841900
6851400
6863800
6872200
6878200
6894500
6898100
6909000
6920000
6925800
6932200
6940600
6944300
6957100
6962300
6972600
6981500
6990400
7004800
7009000
7016200
7023100
7026700
7063700
7068000
7076200
7096300
7107700
7111200
7126300
7142500
7151700
7170700
7174000
7177200
7191700
7195000
7209600
7230600
7236400
7243700
7246700
7250700
7254000
7258000
7261600
7283600
7300600
7315600
7322500
7326600
7341400
7351800
7362600
7365700
7371400
7374400
7378300
7390100
7394200
7408600
7418100
7421900
7428700
7451000
7460500
7466800
7480700
7484600
7498500
7503900
7514400
7519600
7525000
7529700
7534000
7541000
7545800
7552500
7558400
7564300
7567500
7573800
7591600
7594900
7600100
7621100
7628400
7636900
7641800
7660000
7671400
7682700
7688800
7692700
7702000
7707400
7713600
7717000
7721200
7727300
7748800
7764400
7784700
7790900
7794500
7806000
7813900
7821900
7829700
7833900
7859700
7862900
7865800
7868700
7872200
7904500
7917400
7921100
7927500
7933000
7938900
7943700
7958900
7967900
7974100
7984200
8014500
8024400
8027600
8032400
8063900
8083400
8089300
8097100
8102500
8115600
8128500
8138800
8152400
8160600
8170700
8176300
8190000
8196600
8206400
8213400
8228700
8241600
8246600
8274000
8293600
8302100
8308700
8311800
8324100
8331100
8345700
8352700
8358400
8368900
8386900
8395800
8399400
8417900
8423700
8439700
8451300
8478700
8484500
8498200
8501500
8504600
8537900
8553700
8560400
8568600
8574400
8590600
8594000
8613200
8619800
8625500
8637900
8659400
8666600
8674300
8680600
8692500
8701400
8707300
8725600
8733200
8744700
8750900
8756700
8766700
8772200
8782100
8785300
8795600
8823500
8831000
8844100
8853200
8861400
8872300
8894900
8922700
8930900
8936100
8945200
8962900
8970800
8997100
9005300
9008800
9018600
9048500
9051600
9061400
9066300
9069700
9072700
9082400
9092900
9117400
9120600
9133800
9147700
9159300
9177000
9181300
9184300
9198000
9201300
9207200
9214200
9235200
9239900
9249600
9265600
9275200
9284300
9287700
9293700
9306300
9309400
9312400
9349200
9369500
9375600
9393500
9404600
9409400
9421600
9436700
9450100
9453400
9462600
9466400
9477000
9480000
9486800
9493700
9499900
9516900
9526500
9562500
9578000
9585900
9589900
9603700
9613300
9618900
9626600
9630500
9635000
9644700
9648000
9665200
9685800
9692900
9697000
9703300
9715200
9720300
9729300
9732300
9740200
9767600
9778800
9795300
9822500
9833400
9852900
9859300
9875400
9889100
9897200
9907400
9913400
9916900
9925200
9928800
9935200
9940100
9945000
9956700
9962700
9966300
9977300
9980400
9993700
9998900
10003800


