# repro call number: 0
# mode: 1
# signal: 2
# stimulus file: /extra/setup/oel/stimuli/receptorInfo/lmd_co200.dat
# carrier freq (kHz): 2.5
# stimulus length (msec): 1000
# pause between stimuli (msec): 700
# length of ramp (usec): 1000
# desired firing rate (Hz): 100
# standard deviation (dB): -1
# cut-off frequency (Hz): 200
# repetition number: 0
# duration (msec): 1000
# intensity (dB): 58.0488
8600
11300
16000
19600
23800
35000
38000
47800
51600
63700
79100
84500
89200
95000
108800
120000
125200
131000
143300
146100
161200
171500
175900
180800
192800
196200
208200
216800
231900
247900
252900
259500
270000
274700
292300
299200
310200
318300
323200
327800
334800
339500
345000
350800
358900
364300
373200
380200
386700
396500
401300
407000
426500
440200
450600
459500
463400
473300
476600
488200
497100
502800
513600
521400
528300
537100
543600
550500
567100
582500
591300
597500
602900
611300
615400
621900
628800
635900
645000
654100
662300
670700
683700
690200
693900
697700
711700
716300
729500
733000
739000
746100
751100
758300
766300
774000
777900
785200
791900
797500
802100
807700
818500
827000
839700
851200
867300
873900
883600
886900
905700
914800
933200
938900
946600
951200
956800
967500
979800
985900
1000900
1009300
1017600
1028100
1037400
1043300
1046700
1051600
1061200
1068900
1077100
1084800
1093000
1110700
1116300
1119800
1131900
1139400
1149000
1154300
1158400
1165500
1168500
1177600
1185000
1199300
1214300
1220100
1223800
1245300
1260100
1275300
1288500
1295000
1304500
1311600
1318200
1324300
1333000
1340200
1357400
1361500
1369600
1377300
1386700
1398900
1409000
1428100
1435300
1439500
1445100
1458000
1462200
1472500
1476600
1485500
1499600
1505500
1524800
1537800
1543700
1550400
1553900
1563600
1568200
1575900
1580800
1599600
1606700
1616800
1624400
1634000
1641700
1656200
1661900
1668400
1674300
1682500
1689300
1696400
1705200
1708900
1737000
1742900
1749700
1755500
1764900
1769500
1790600
1803400
1814400
1826900
1835300
1840400
1846100
1857400
1863300
1872800
1880700
1889500
1893500
1905400
1918000
1923800
1934800
1941700
1954900
1969300
1975000
1988900
2006000
2013700
2018600
2029100
2034500
2040200
2045100
2052700
2057600
2061700
2075100
2081000
2092500
2107200
2111400
2121000
2127700
2136200
2146100
2154100
2157600
2176900
2189900
2195800
2201400
2208600
2215600
2227400
2233600
2242500
2249300
2265000
2272400
2281600
2288700
2295500
2303000
2306400
2311400
2316900
2322700
2330300
2338300
2344700
2358000
2361300
2367800
2374300
2383900
2392500
2401600
2408800
2421700
2427500
2441300
2453600
2463000
2467400
2473200
2477800
2484500
2499300
2504600
2509400
2518500
2528400
2532700
2548700
2555200
2564200
2567400
2573400
2594500
2603700
2609000
2615700
2624400
2637400
2643200
2647500
2651400
2673500
2689800
2697000
2700700
2722800
2738200
2768200
2774100
2793600
2796600
2810500
2814800
2825400
2831100
2851500
2860300
2868000
2879800
2886600
2897400
2910000
2922000
2932500
2939200
2947200
2957500
2973500
2980500
2988900
2996800
3012500
3018800
3032900
3037700
3047500
3056100
3069400
3075200
3084500
3090100
3101100
3113000
3118500
3125000
3130800
3141500
3152600
3168100
3174600
3179700
3191200
3211500
3227200
3234600
3238600
3250200
3259100
3273600
3278700
3287500
3298100
3304900
3329200
3344400
3353100
3384200
3392900
3396700
3404000
3411200
3423400
3430100
3438400
3444100
3458400
3466400
3469700
3477300
3486800
3502300
3508900
3515300
3525400
3531700
3537200
3547600
3563900
3575200
3587700
3604000
3609500
3615400
3625600
3631300
3637800
3645200
3652800
3663000
3671900
3686500
3693600
3697500
3711200
3715100
3727800
3742900
3751200
3754500
3764900
3777200
3784100
3790800
3794500
3804500
3815000
3818900
3826000
3833100
3849000
3855200
3868400
3882500
3886900
3890600
3904300
3920000
3927200
3933800
3938100
3948000
3963600
3968000
3980700
3988100
3997100
4004000
4009900
4020000
4028100
4035300
4038600
4044400
4052700
4061800
4070100
4076400
4080800
4089000
4098500
4106800
4122500
4134000
4139700
4152000
4159100
4165600
4177700
4186200
4192100
4208500
4219200
4235300
4247100
4253600
4260600
4266400
4274100
4288100
4294400
4314100
4325600
4334600
4340800
4343800
4348600
4361200
4372600
4387600
4395700
4402600
4408700
4413700
4430400
4434700
4438400
4443500
4456100
4469900
4478800
4488800
4496300
4502100
4511300
4515500
4535400
4539500
4547400
4551100
4561100
4571600
4580600
4589900
4593300
4599900
4612600
4619300
4633900
4641100
4647100
4653400
4660900
4675000
4681400
4692200
4697700
4710500
4725800
4730500
4737000
4746600
4756700
4763200
4780300
4788200
4804300
4813200
4821400
4825100
4841600
4855100
4867300
4873100
4878800
4888200
4900500
4912800
4918400
4926300
4932200
4946700
4951500
4964400
4973800
4978800
4985500
4991900
4997700
5001500
5010800
5017500
5032600
5036800
5060400
5072200
5076700
5094700
5101500
5112900
5122400
5128000
5139600
5146900
5153600
5161000
5168700
5182200
5190000
5197700
5204700
5210200
5229300
5239000
5245900
5254400
5266400
5274400
5278600
5289000
5300100
5306900
5316800
5324100
5332800
5340700
5347300
5363500
5367400
5375400
5385500
5401600
5408100
5417200
5427800
5437500
5444600
5449300
5463100
5474000
5479700
5491000
5506700
5513800
5525300
5531200
5535700
5544700
5550100
5556900
5568900
5589100
5598100
5604300
5610400
5631000
5638300
5643900
5656800
5661700
5667300
5691300
5694700
5708000
5714500
5720900
5731300
5741200
5749900
5756400
5766900
5772900
5783200
5791400
5800700
5812800
5819300
5826700
5834000
5838000
5845400
5851700
5860500
5868400
5877900
5887900
5894000
5897900
5904200
5917800
5938900
5942100
5949000
5954600
5964400
5971300
5987400
6000600
6016800
6027600
6033900
6047100
6062800
6071000
6088800
6098000
6101400
6109600
6114600
6120300
6127100
6133000
6143700
6159200
6172200
6178100
6185000
6193500
6198300
6209700
6219300
6225900
6234200
6241900
6246300
6251100
6257300
6276800
6284200
6292600
6298100
6304400
6315600
6331800
6338700
6356300
6361600
6367800
6376300
6380900
6391500
6397300
6404900
6422800
6432200
6442500
6453900
6458500
6468700
6475200
6482400
6488400
6501100
6511200
6515100
6527000
6530800
6540000
6556900
6563400
6576600
6584800
6598900
6608600
6616600
6624400
6636900
6644300
6652200
6659700
6673800
6679900
6686300
6695400
6699000
6708300
6720000
6728100
6738800
6742600
6748800
6757800
6762300
6770400
6779100
6784400
6791300
6800600
6806100
6812200
6822700
6840600
6849900
6863700
6868300
6873700
6880000
6887200
6899800
6907300
6912000
6920600
6924600
6930400
6935600
6946300
6955300
6968000
6973500
6978900
6991600
7000600
7008300
7013900
7020700
7029500
7035900
7043500
7049100
7060300
7069900
7080500
7107300
7114900
7124700
7130200
7141200
7147700
7156400
7160500
7168900
7176600
7184300
7202400
7211100
7218600
7232500
7236700
7247900
7258100
7265900
7270900
7276200
7281300
7301200
7312600
7319000
7344400
7348700
7356000
7361400
7367000
7380500
7389100
7401500
7406000
7419400
7425200
7432600
7438900
7455800
7462200
7475900
7483300
7496500
7501100
7506100
7511100
7517200
7529900
7543000
7555700
7563700
7568900
7576600
7598300
7604500
7611100
7618100
7627900
7636300
7645400
7665400
7672900
7688600
7694600
7700900
7705900
7715000
7723000
7727400
7737600
7756900
7765900
7782000
7789700
7801400
7805700
7817200
7825100
7835100
7844900
7853500
7870500
7878700
7887000
7892300
7900300
7911100
7916500
7934400
7941100
7946100
7950700
7956200
7967600
7973300
7986700
8005500
8017800
8024400
8034300
8043500
8057500
8061200
8079500
8095300
8101500
8106900
8118500
8132300
8144200
8156000
8164600
8174300
8197800
8202300
8208600
8214600
8221300
8227600
8233500
8240600
8252900
8258400
8271300
8278800
8288200
8300200
8305200
8313300
8319800
8325700
8330700
8342700
8352900
8360500
8367200
8372900
8381000
8394300
8397800
8421600
8429900
8434700
8458900
8467000
8472700
8487300
8497300
8509400
8523500
8539800
8545400
8548300
8561100
8569000
8587500
8593900
8604300
8611500
8618100
8627600
8631300
8647000
8653800
8658300
8664200
8669000
8678900
8686200
8690400
8702000
8707500
8712100
8718100
8730400
8740400
8750500
8761300
8773600
8782300
8787000
8797900
8809700
8817300
8832500
8838000
8848500
8863300
8871200
8877500
8885000
8890300
8898800
8915300
8924200
8932200
8948700
8962900
8969400
8974600
8984400
8990100
9005600
9014700
9029000
9039200
9050900
9056200
9067300
9072700
9085500
9090200
9106200
9126300
9129800
9134500
9146600
9168800
9178700
9184000
9190400
9195100
9201700
9220100
9227300
9232900
9239900
9255400
9264600
9276400
9287100
9299200
9307300
9312500
9345500
9353200
9362700
9369500
9379900
9392100
9398500
9409000
9412100
9425700
9431100
9445800
9455300
9460500
9468000
9483900
9491900
9498500
9506400
9524000
9542000
9553200
9564100
9568600
9581000
9594500
9611500
9632200
9649400
9654000
9662300
9672100
9684500
9693400
9704800
9720200
9729100
9742200
9748300
9768800
9774900
9785400
9796800
9802400
9805800
9818700
9823300
9833800
9838500
9853800
9859600
9867500
9884400
9893900
9906900
9913700
9924000
9935600
9954300
9967900
9974600
9980300
9987100
10001600


