# repro call number: 0
# mode: 3
# signal: 2
# stimulus file: /extra/setup/oel/stimuli/receptorInfo/gauss_st6_co25.dat
# carrier freq (kHz): 3.53553
# stimulus length (msec): 1000
# pause between stimuli (msec): 700
# length of ramp (usec): 1000
# desired firing rate (Hz): 100
# standard deviation (dB): 6
# cut-off frequency (Hz): 25
# repetition number: 0
# duration (msec): 1000
# intensity (dB): 100
6500
10600
15100
22600
28300
33500
39400
44500
49600
55700
61100
66500
74000
91000
100700
110800
125100
132900
138700
143900
149600
154700
162600
172900
179600
185900
192400
197700
205800
213100
222700
231000
236800
243100
254000
270300
294100
301200
306200
312500
319500
325500
336700
346300
353600
358300
364100
370100
379200
387600
394400
401400
425100
431400
437800
444400
451800
464900
477800
486600
494200
504100
511000
517800
524200
562300
571300
599800
605500
611000
616300
622100
629200
664400
670000
674700
679800
684600
690200
695800
717500
726500
732900
777700
784800
792600
800000
809700
815400
822200
841400
887000
894200
900900
939600
985800
993700
1034800
1048100
1055200
1061200
1066800
1074100
1119500
1126800
1136500
1209400
1216500
1222700
1260200
1266200
1272400
1278600
1317300
1324600
1330800
1337400
1378300
1384500
1390700
1425600
1433400
1482400
1488400
1494500
1500400
1505500
1514000
1534900
1543200
1589700
1660400
1665900
1671800
1676900
1683500
1752900
1759100
1765300
1770400
1775600
1782100
1787800
1792900
1799700
1806100
1813200
1909900
1917400
1923400
1959400
1992700
1998600
2005200
2011200
2049100
2065700
2073000
2079400
2084600
2090200
2095400
2103900
2133100
2138900
2145700
2152900
2173700
2181500
2189500
2249700
2255100
2261100
2266500
2274800
2315000
2323000
2329700
2337300
2359300
2366900
2374100
2380800
2438500
2452100
2459400
2471200
2480300
2493100
2524900
2534800
2541700
2577200
2584400
2590600
2635300
2642300
2666100
2675100
2684400
2701200
2715500
2722800
2756600
2762500
2768800
2775400
2781900
2791800
2884600
2912400
2925400
2946000
2986400
2996000
3029500
3036800
3043700
3091400
3101600
3113800
3123500
3153200
3162300
3169700
3207500
3214000
3248000
3277700
3285600
3296100
3321300
3369100
3380600
3389900
3430200
3436600
3441900
3447800
3483000
3489800
3523600
3530200
3536500
3542600
3550300
3570600
3577400
3618900
3625700
3631000
3637200
3644900
3696700
3704700
3738600
3745700
3753300
3760100
3788800
3797600
3809400
3844800
3855200
3921500
3928400
3935400
3943900
3951800
3961600
4013400
4072600
4079300
4085900
4094000
4132600
4138500
4145600
4151800
4160600
4173500
4195100
4204200
4219800
4236300
4248200
4254700
4262600
4273400
4312800
4321700
4328100
4333700
4364800
4446600
4453400
4461600
4468000
4527800
4533400
4538900
4545300
4552000
4603500
4611100
4621200
4656500
4677700
4688300
4694900
4703200
4765000
4772300
4781100
4815000
4822600
4857000
4862500
4870600
4947500
4987400
4996400
5036100
5043300
5049200
5055000
5062600
5097700
5105700
5113100
5142900
5150000
5159500
5197400
5204600
5241200
5247900
5254100
5262900
5287200
5294600
5302100
5376700
5383300
5389300
5395300
5402100
5411300
5418500
5460200
5489900
5498600
5508300
5515900
5548300
5592500
5600200
5606100
5612400
5618700
5624200
5633000
5676700
5683400
5695700
5704400
5715400
5721700
5760300
5767100
5773200
5808100
5819500
5827900
5836100
5845700
5886500
5893700
5901600
5909900
5928500
5976300
5983700
5989300
5994900
6035300
6042400
6048600
6054400
6061500
6068900
6145700
6179400
6185200
6192000
6200100
6207400
6253200
6294800
6306400
6312200
6342000
6357300
6385200
6393200
6428400
6437200
6525700
6533600
6567100
6574800
6582800
6617600
6625700
6632800
6638800
6647500
6654400
6664700
6675300
6703000
6711300
6717600
6751500
6758100
6765700
6847600
6854400
6862500
6898700
6905300
6912500
6945800
6954000
6998100
7006000
7043800
7054600
7063500
7072200
7097100
7106500
7116800
7125000
7175700
7184200
7189900
7198100
7245600
7252900
7260700
7269900
7277100
7347400
7354900
7361800
7367600
7379400
7460700
7468000
7476000
7488500
7547400
7554900
7601400
7608200
7620400
7643900
7658400
7702500
7711500
7745700
7752600
7759100
7767500
7798100
7810000
7853200
7863100
7870700
7889000
7932000
7941100
7948800
7988300
7994600
8001600
8009500
8041600
8048600
8055800
8065800
8074200
8083800
8105900
8113400
8121300
8129700
8160000
8171700
8182100
8235000
8241600
8249800
8286500
8292800
8300900
8310400
8338500
8345000
8353100
8405600
8414200
8447500
8456600
8465200
8471100
8476800
8486200
8525100
8531800
8540000
8590900
8635600
8642300
8649100
8685100
8693200
8739100
8747000
8757200
8799900
8812300
8842000
8848200
8858000
8881500
8888800
8896200
8902900
8963700
8970400
8976200
8982600
9008900
9016300
9024000
9066900
9073400
9108100
9113300
9120500
9126000
9153600
9160800
9168100
9202700
9210500
9258600
9267100
9278600
9286500
9293100
9324700
9331200
9337500
9344300
9406200
9411800
9418700
9424900
9431500
9438400
9443900
9449700
9490500
9528200
9536500
9577100
9583600
9613300
9619700
9626300
9659200
9669100
9703900
9709400
9717600
9738000
9744700
9751500
9780700
9791800
9823600
9899800
9910000
9937100
9989200
9997600


