# repro call number: 0
# mode: 1
# signal: 1
# stimulus file: /extra/setup/oel/stimuli/receptorInfo/gaussModality_co200.dat
# carrier freq (kHz): 5
# stimulus length (msec): 1000
# pause between stimuli (msec): 700
# length of ramp (usec): 1000
# desired firing rate (Hz): 100
# standard deviation (dB): -1
# cut-off frequency (Hz): 200
# repetition number: 0
# duration (msec): 1000
# intensity (dB): 68.8235
7300
12800
18200
22200
25900
28700
34500
38300
42400
45300
50200
57300
60400
63100
73800
80300
84800
96800
100300
104500
108600
112100
121300
124300
129400
138900
152700
165200
168400
172700
183300
188400
194700
202000
212200
217400
225300
233600
237500
241500
246100
257300
260200
264200
270100
284600
290700
297000
302600
307100
310700
314100
321700
326200
337600
344400
358100
364300
371700
380100
386200
400900
404400
409500
421100
454500
457800
463100
471600
485500
489200
505700
511000
514700
532200
551900
555400
560500
569500
575700
594200
603900
617300
627900
639700
643800
657300
669000
675100
688600
704400
708600
715600
727600
731500
741200
748900
757600
761700
773300
779000
792700
795800
801800
808800
816500
825000
832500
840700
844800
857300
864800
876000
890300
893500
904200
910500
920600
936100
940300
957500
961200
967300
971000
995600
1003100
1009800
1016200
1023200
1037000
1041900
1049400
1062400
1076700
1081200
1085800
1096800
1108200
1129900
1142300
1146000
1150600
1173400
1176800
1180700
1186500
1192700
1202800
1210100
1219700
1230800
1246000
1261800
1268600
1298100
1316400
1326300
1330300
1335700
1349000
1355600
1360100
1367000
1376800
1382600
1397700
1410000
1419900
1426300
1430100
1435000
1448500
1458000
1471600
1481700
1486800
1494100
1501100
1506600
1510100
1515500
1521900
1529300
1547900
1554700
1577000
1580100
1584000
1599800
1613900
1620200
1626600
1636300
1644300
1650800
1663100
1670800
1681600
1685600
1692500
1700600
1708300
1727400
1733300
1741700
1745400
1764600
1769200
1772300
1779500
1790800
1806800
1825800
1829100
1841300
1846300
1852800
1873400
1880100
1901500
1905000
1921600
1936500
1941900
1954000
1959700
1965000
1975100
1984200
1992200
2003700
2030400
2044200
2065300
2069400
2073000
2076200
2086400
2093300
2099000
2106300
2109900
2145900
2149600
2153400
2163300
2169300
2176100
2181800
2202000
2218800
2248600
2253600
2274300
2279400
2284000
2299800
2309500
2341900
2349000
2364200
2370800
2379300
2387400
2391300
2398400
2407800
2418000
2435300
2439700
2447900
2455300
2468100
2473400
2509800
2513400
2516900
2529300
2554500
2562500
2572100
2578000
2583800
2595200
2607700
2620600
2630000
2635700
2640600
2643800
2646800
2659100
2667000
2674600
2689400
2704500
2710000
2715200
2728000
2732000
2742200
2755700
2761000
2782600
2790200
2799200
2813000
2824200
2835100
2840800
2847800
2856700
2862500
2867500
2874100
2880000
2886000
2891500
2897000
2902400
2938600
2950100
2962900
2969200
2973200
2980800
2993700
3009300
3015600
3032100
3051200
3059200
3068100
3077800
3086200
3097100
3108700
3122100
3130900
3138200
3142000
3175500
3179100
3188500
3204300
3214900
3219800
3224200
3228000
3245700
3256600
3262700
3274100
3279000
3284200
3289600
3297900
3311600
3318100
3323300
3327500
3334600
3365000
3376900
3380200
3402500
3412300
3416400
3423000
3430000
3449500
3454300
3464000
3475600
3493600
3501900
3516900
3524000
3527100
3539300
3551500
3561800
3573100
3580000
3588900
3592300
3608700
3614400
3625500
3633200
3639600
3643600
3654700
3670700
3674800
3682000
3695500
3702300
3732200
3738100
3742300
3754000
3767000
3772700
3784400
3797500
3800700
3803900
3818800
3825100
3842900
3851100
3855200
3866000
3870300
3874100
3879700
3886500
3901400
3915400
3923700
3932000
3938300
3942800
3954300
3961700
3969300
3983200
3988800
3995100
3999200
4005200
4017000
4023500
4032800
4047300
4056000
4063800
4072400
4098100
4115700
4123800
4129600
4143500
4165600
4169300
4179900
4185900
4214700
4222500
4234400
4239000
4255000
4260600
4270600
4275000
4292500
4297500
4315800
4319200
4323000
4327200
4340600
4347000
4351900
4356600
4365800
4369900
4382400
4398100
4403400
4413600
4419300
4424400
4427700
4432500
4436000
4447500
4463600
4478900
4484500
4490500
4505900
4516800
4525000
4534600
4540500
4548500
4578600
4583400
4591600
4599000
4606600
4611500
4621500
4628700
4635800
4662600
4670000
4676500
4686200
4690500
4703600
4720500
4726500
4731600
4743800
4749100
4756600
4766600
4796600
4801500
4816800
4826300
4830200
4840100
4846200
4853800
4859800
4878200
4888500
4892000
4897400
4901400
4911600
4925700
4939500
4947100
4952500
4963500
4973600
4981800
4985500
4988600
4995500
5004100
5013100
5020100
5030400
5044600
5065300
5073200
5077800
5090900
5099100
5112200
5116100
5119800
5124100
5133000
5137200
5141400
5144900
5164600
5181300
5196200
5200500
5225900
5231700
5262300
5267300
5277200
5287400
5291300
5298000
5302600
5308600
5319600
5323500
5330700
5349200
5361600
5370900
5381000
5403200
5420700
5428200
5433100
5446400
5455100
5466600
5470900
5478000
5482200
5508000
5517000
5528800
5533100
5536600
5545100
5558400
5565700
5569900
5579800
5588400
5593900
5603800
5611300
5620600
5630900
5640100
5646700
5654700
5661800
5666500
5670400
5684300
5693700
5699500
5706400
5712500
5728600
5741500
5749700
5758700
5767900
5773100
5785600
5790100
5794000
5799600
5817000
5821400
5827700
5865900
5873200
5901500
5905800
5911500
5919600
5925200
5933900
5942600
5948200
5996300
6006900
6015200
6019000
6035300
6048200
6058300
6066800
6090400
6107900
6111700
6115100
6127300
6133800
6143400
6148600
6153900
6158300
6170100
6177600
6189200
6196300
6204600
6210100
6214900
6220200
6249700
6261300
6268100
6293200
6298000
6303700
6313000
6326300
6330200
6335200
6345400
6363600
6381300
6394400
6402300
6406400
6420100
6425300
6429900
6439400
6447700
6461800
6489100
6504200
6509500
6526400
6544400
6552300
6560000
6582600
6588100
6597900
6601600
6607900
6611500
6637200
6641000
6653400
6658800
6669800
6682400
6689700
6700700
6706300
6710300
6722500
6729400
6737200
6741900
6752800
6756900
6771200
6777700
6800600
6809000
6822500
6827300
6834500
6855500
6861600
6870400
6886000
6902100
6928000
6937700
6942900
6951200
6960200
6972600
6984300
6988100
7000900
7014200
7022000
7030100
7043200
7046900
7064000
7070000
7075600
7080700
7089000
7104500
7116400
7124900
7128800
7134100
7140300
7145200
7159600
7169100
7187500
7194800
7199800
7204800
7208200
7225400
7228800
7232500
7245200
7250700
7261800
7269500
7274900
7281700
7296000
7313800
7321800
7330700
7340700
7360900
7366400
7382000
7396400
7407100
7444000
7462200
7472000
7492000
7502000
7505900
7511200
7515600
7525600
7530500
7540900
7557700
7582100
7586000
7594400
7604200
7630600
7651600
7656000
7662800
7670500
7682900
7688900
7709700
7717800
7725000
7735000
7746400
7750800
7769600
7775600
7784400
7789100
7795700
7802700
7811400
7820400
7830600
7836300
7844300
7858600
7874400
7879300
7885600
7890400
7899800
7909600
7914400
7946100
7951200
7956700
7963100
7973100
7976500
7998200
8011400
8017200
8030700
8040000
8052300
8061100
8064900
8074300
8078900
8091600
8095500
8105100
8116800
8128500
8144000
8163200
8166500
8173700
8185900
8194100
8206500
8212400
8218400
8225500
8234500
8240100
8249400
8258400
8268800
8277600
8281500
8292100
8300300
8315900
8338500
8346700
8354000
8358200
8366700
8393400
8400100
8409200
8430200
8437000
8449000
8456600
8476500
8487000
8491700
8496100
8522100
8530300
8540500
8546700
8564600
8572700
8579500
8583000
8594900
8598500
8606500
8621700
8625900
8647900
8658600
8664700
8682500
8692500
8700900
8706200
8712700
8727000
8736900
8750900
8758200
8775200
8780300
8792400
8805700
8816300
8822000
8832000
8837900
8844800
8860100
8867400
8871700
8885400
8904000
8919900
8923900
8937100
8940800
8947000
8970300
8973700
8989700
8996000
9014800
9025600
9033800
9039100
9047600
9051400
9072800
9087300
9090700
9103100
9109500
9120600
9133300
9137900
9145400
9161700
9165400
9169700
9175100
9178600
9183500
9196800
9207400
9212700
9223200
9232100
9250800
9254900
9267900
9281600
9289100
9304000
9317700
9325100
9332500
9342300
9346400
9366500
9373100
9385900
9390700
9398300
9410500
9420600
9428200
9434600
9443500
9472700
9480900
9498000
9507800
9514200
9533100
9563600
9575100
9580300
9584300
9590200
9610500
9623400
9630600
9636300
9640500
9644700
9653200
9682900
9690000
9713600
9721700
9726300
9732700
9745900
9751400
9767800
9774700
9778100
9788600
9800900
9805300
9820500
9839600
9854200
9866000
9877500
9885100
9892700
9898800
9905300
9910900
9916300
9928500
9933200
9944700
9949500
9959700
9971400
9976500
9990300


