# repro call number: 0
# mode: 3
# signal: 1
# stimulus file: /extra/setup/oel/stimuli/receptorInfo/gauss_st6_co200.dat
# carrier freq (kHz): 3.53553
# stimulus length (msec): 1000
# pause between stimuli (msec): 700
# length of ramp (usec): 1000
# desired firing rate (Hz): 90
# standard deviation (dB): 6
# cut-off frequency (Hz): 200
# repetition number: 0
# duration (msec): 1000
# intensity (dB): 79.8387
4600
6800
8800
11700
22800
25000
27500
35700
45200
48700
58000
66000
78200
80700
85100
90500
116100
127000
134400
143400
145600
147900
154900
181900
197300
206500
210000
212600
215100
217600
253500
266900
283400
297400
301600
304200
310100
334300
341600
344700
350700
359700
362200
367100
369900
395400
397800
401600
416000
418800
425600
428300
453800
457100
460000
462400
467200
472400
478100
480500
487200
494600
502000
527200
536300
546600
552800
555300
561900
582100
588700
608900
612900
624300
626800
631400
657600
669800
673100
675900
680500
687400
702300
713800
716400
728900
738600
741200
768300
788800
791300
799200
802000
810900
821200
833300
847500
850100
855800
863300
866000
881400
891500
902000
923500
928200
936200
938900
956200
958900
965800
971200
978100
1000300
1003100
1022300
1027900
1030700
1063700
1070700
1078200
1085800
1088500
1093200
1126500
1134000
1141600
1150300
1153000
1156500
1174000
1183600
1189300
1196500
1209400
1212500
1233400
1238600
1242900
1254100
1266300
1272100
1288100
1291000
1294500
1310300
1313100
1316800
1337200
1342600
1363000
1376000
1391100
1398000
1404100
1410400
1418200
1429000
1449100
1465800
1476100
1485500
1488500
1509500
1530500
1540900
1547400
1552500
1585900
1590700
1625600
1634000
1637500
1655100
1660300
1669900
1677200
1682000
1690700
1703700
1720700
1732800
1736700
1741300
1754700
1779000
1802800
1812400
1825200
1832100
1841500
1853600
1875400
1889000
1897100
1900600
1912400
1932800
1948100
1958400
1969100
2014100
2028200
2032100
2039700
2050600
2065300
2071300
2078300
2082200
2098000
2103500
2108100
2113000
2132900
2168500
2171900
2180600
2183900
2190900
2210200
2234000
2243900
2254500
2257700
2264100
2276100
2279500
2293000
2301700
2316500
2325700
2344400
2369200
2372800
2376300
2381200
2400300
2410700
2422800
2432300
2440400
2452300
2457900
2479000
2490700
2496200
2500400
2509300
2524900
2543600
2561700
2576200
2586900
2592300
2598100
2611200
2624000
2637300
2647600
2660500
2673100
2691500
2696000
2724100
2737600
2748500
2752500
2756000
2766700
2775400
2795300
2807300
2815500
2821300
2830100
2837200
2840700
2847000
2858200
2877200
2893300
2902000
2913200
2935400
2945400
2956000
2961100
2966800
2982200
2996200
3005000
3012400
3024300
3041300
3053600
3062700
3079400
3088000
3102200
3119600
3131800
3135800
3150400
3162300
3185800
3198800
3211100
3227900
3233400
3246900
3269000
3276700
3283600
3289500
3294300
3321200
3337200
3348400
3366100
3382600
3389800
3397000
3400800
3421400
3428900
3448400
3453600
3468400
3474900
3480300
3492100
3505200
3536000
3543600
3551500
3569400
3577700
3594600
3609000
3619100
3641000
3648600
3659700
3670600
3684800
3711300
3722000
3743900
3747900
3753700
3766800
3770700
3783700
3801300
3806600
3818600
3833000
3842300
3860000
3876800
3889300
3893100
3898000
3902000
3919300
3930000
3954700
3968600
3999000
4004000
4010100
4042300
4049200
4062500
4075400
4086100
4101900
4114300
4131200
4168300
4173900
4186100
4189800
4201300
4215300
4221900
4225800
4232700
4237900
4248900
4262100
4296000
4303200
4313000
4324300
4330500
4347100
4370400
4391000
4399400
4405400
4424700
4429900
4445300
4452600
4462100
4468100
4474100
4488700
4499500
4506200
4522400
4533200
4537500
4555200
4562500
4590300
4598400
4624900
4639300
4649300
4662000
4670300
4712000
4727300
4738600
4744000
4754300
4759000
4778500
4789300
4795500
4806200
4820600
4849800
4870200
4876200
4881000
4893000
4899200
4923000
4931500
4973900
4979600
4986100
4994900
4999900
5023100
5030900
5056200
5071900
5085200
5091000
5110300
5136200
5143100
5154600
5158800
5165000
5171900
5180600
5203900
5210900
5216100
5221800
5241800
5255000
5264300
5275600
5283900
5292200
5300200
5324700
5346500
5362300
5369800
5384700
5394000
5419500
5431500
5435200
5451500
5457800
5468200
5474500
5480000
5494700
5516200
5527500
5558400
5566300
5573900
5577600
5632600
5642900
5652400
5660000
5677900
5686000
5702600
5729800
5749600
5754100
5761700
5769500
5799300
5803600
5807900
5826300
5831800
5842000
5847700
5860500
5869400
5883200
5896900
5915600
5920500
5925500
5937100
5944400
5949700
5960000
5990800
6005900
6028600
6034300
6049900
6054500
6064100
6071500
6093000
6107300
6119900
6149200
6159800
6181300
6188400
6197100
6204300
6218400
6247100
6267900
6272300
6294400
6298100
6311400
6328200
6334400
6347200
6398700
6405100
6412100
6424500
6435700
6441100
6465100
6470200
6476700
6502900
6522200
6541600
6549200
6555600
6562900
6569000
6576900
6582600
6598400
6612100
6616700
6633000
6654100
6657700
6687100
6692400
6708200
6718600
6732400
6763200
6780200
6786600
6794000
6797900
6809900
6832600
6837700
6849800
6870700
6876600
6893600
6907200
6929300
6939800
6959700
6979900
6999300
7007200
7010900
7015900
7021700
7026100
7062800
7066400
7074200
7108000
7118900
7124900
7139000
7151100
7157200
7170600
7191200
7208200
7228400
7234600
7243000
7249000
7255300
7258900
7299000
7306100
7320500
7324400
7339600
7345900
7350200
7361100
7370000
7388400
7405300
7417400
7421100
7449600
7464200
7478900
7486400
7497900
7502400
7513300
7518300
7524300
7532300
7539500
7546100
7551500
7557400
7563500
7570900
7591100
7614900
7620000
7639600
7658400
7680300
7685500
7700300
7705900
7713100
7725400
7744300
7753500
7780400
7789900
7817400
7821600
7827800
7831800
7858800
7862400
7870800
7896100
7901200
7911600
7916400
7920500
7931400
7937800
7943100
7959000
7966300
7973700
7982900
7987600
8013300
8022800
8043500
8052400
8073700
8081800
8087900
8105400
8127000
8139600
8150700
8159300
8169000
8174400
8194900
8204600
8226900
8240300
8245600
8272600
8292400
8306600
8323800
8345900
8351400
8357000
8366900
8384400
8388700
8394400
8410900
8418100
8457200
8477400
8482800
8496000
8542600
8557200
8567300
8572200
8590500
8599100
8612200
8623300
8637300
8658100
8665300
8678700
8690700
8700800
8723100
8730900
8743600
8749500
8779700
8813500
8822300
8839700
8859100
8869600
8892600
8916200
8922200
8927900
8935100
8944100
8962000
8968500
8995900
9003300
9016400
9047100
9064000
9068400
9080700
9106600
9115700
9132500
9177000
9195600
9199100
9205300
9213300
9234000
9237400
9247800
9257000
9274000
9284800
9291900
9297200
9306500
9337500
9347300
9367700
9390100
9395500
9407000
9419600
9435400
9449100
9461400
9476100
9490400
9498000
9515000
9532400
9555900
9562800
9576900
9586300
9597600
9617100
9627500
9643000
9663600
9682200
9685600
9692200
9711900
9727600
9739200
9755000
9765300
9777700
9792000
9806200
9821000
9857600
9874000
9896700
9910900
9922200
9926800
9934200
9944400
9954800
9962900
9975900
9996900


