# repro call number: 0
# mode: 3
# signal: 2
# stimulus file: /extra/setup/oel/stimuli/receptorInfo/gauss_st6_co25.dat
# carrier freq (kHz): 3
# stimulus length (msec): 1000
# pause between stimuli (msec): 700
# length of ramp (usec): 1000
# desired firing rate (Hz): 100
# standard deviation (dB): 6
# cut-off frequency (Hz): 25
# repetition number: 0
# duration (msec): 1000
# intensity (dB): 62.5
17700
36500
44400
49600
54800
68200
78900
135800
140000
142900
146200
150000
152700
155700
160900
175900
182300
190700
200100
206700
210700
216500
221200
229300
232700
236800
240300
244900
250600
299400
303100
305900
308600
311400
314400
318400
327400
333700
349400
352800
355700
358900
361900
365100
370100
379400
390000
399400
409300
428000
432200
436200
439000
445300
449100
455300
476500
496100
501200
506700
509900
513300
517300
520400
531000
554400
561800
564700
569600
599300
603400
606400
609300
612500
616100
619100
622300
628500
661900
667100
669600
671800
674100
676300
678600
681100
683700
686100
688800
693600
721200
727300
732900
738400
778500
787800
795000
799800
803700
809200
813600
819000
842200
884100
890500
893700
897100
902100
931700
948700
962300
982900
988100
991500
996800
1033400
1037500
1048800
1052500
1060600
1064300
1068800
1072100
1078000
1107000
1126400
1131400
1153300
1177900
1211200
1215000
1224800
1233600
1253400
1262000
1270500
1274600
1278400
1289000
1301400
1317600
1323500
1326800
1329600
1332200
1339300
1382600
1386000
1392800
1434400
1440500
1470300
1486300
1489800
1493900
1496900
1499500
1502900
1535700
1544000
1580600
1592200
1612900
1664100
1667300
1670400
1672800
1676000
1678800
1682400
1744400
1758700
1762200
1764900
1767900
1770900
1773700
1777000
1781800
1784900
1788000
1791000
1794800
1797700
1800900
1806400
1809900
1831000
1871900
1893300
1905000
1916000
1921800
1951200
1969500
1980100
1996300
2000900
2003900
2007400
2011900
2016100
2031200
2048000
2052200
2070500
2073600
2076700
2079500
2082000
2084300
2086600
2088900
2091100
2094100
2096800
2099400
2131500
2135000
2137800
2140700
2143500
2146800
2159200
2174700
2180200
2184000
2188600
2193800
2237200
2246300
2250700
2255700
2258500
2262100
2264800
2268200
2271200
2312800
2318400
2323100
2326700
2329900
2335900
2354700
2362500
2368600
2374000
2378200
2382300
2386700
2438700
2447300
2453900
2459800
2467400
2472100
2480400
2483800
2486600
2492900
2531600
2536000
2541200
2549100
2572700
2577600
2580900
2587300
2606600
2616000
2624700
2640900
2645800
2654700
2665000
2669200
2674100
2679700
2690400
2703100
2706700
2711700
2716600
2732100
2760200
2764200
2769100
2772300
2776500
2782100
2785500
2819700
2836900
2859400
2880600
2908800
2926600
2931300
2954500
2966500
2989900
2995900
2999900
3014900
3031300
3035100
3039300
3044900
3049000
3089300
3096600
3100800
3105300
3118200
3124700
3153100
3158700
3166000
3203800
3212500
3233400
3243100
3255500
3278200
3285400
3291500
3305900
3321500
3326600
3339100
3359200
3371200
3375800
3382100
3388000
3400800
3407900
3417400
3427400
3430500
3434800
3439100
3442100
3445700
3485300
3501100
3524700
3527600
3530300
3532800
3535000
3537500
3540100
3542600
3560300
3570500
3574800
3580100
3616100
3622200
3625300
3627800
3630700
3633500
3636500
3644200
3656000
3708000
3717900
3737600
3741000
3745100
3747600
3750300
3753000
3756800
3760800
3787700
3794400
3797900
3803600
3809500
3846100
3852600
3860700
3867600
3880000
3907000
3918400
3925000
3930500
3934900
3939000
3942800
3946300
3950600
3957500
3962700
3998300
4037000
4078400
4083200
4088900
4113000
4133300
4139000
4142400
4146100
4155700
4170900
4182600
4191900
4210000
4224600
4240000
4244200
4249600
4252500
4255900
4260400
4264000
4269000
4277500
4303800
4311200
4321000
4324300
4328400
4333300
4344400
4362200
4367200
4444500
4451700
4456600
4460200
4466300
4504000
4523400
4532300
4536000
4538900
4541600
4545300
4549300
4575400
4578300
4594800
4608800
4612500
4620400
4628300
4649200
4665800
4684800
4688800
4693600
4705600
4747500
4766100
4772400
4777700
4787100
4793100
4815900
4819300
4823900
4837200
4856700
4860100
4863200
4865800
4868700
4871900
4918600
4952300
4970400
4982700
4989500
4997800
5038100
5041700
5044400
5048300
5052200
5055600
5059100
5075600
5090100
5100800
5104800
5113800
5132900
5141800
5145100
5149400
5153600
5192000
5201000
5209600
5244300
5248500
5254300
5258200
5265900
5287400
5290700
5295600
5299800
5305400
5346100
5381100
5385500
5388900
5392000
5397000
5401400
5407300
5417400
5429700
5446000
5460400
5464900
5472900
5488900
5496000
5501300
5504300
5507100
5510900
5517800
5541600
5550300
5554300
5587100
5596400
5599600
5602600
5606000
5610900
5614300
5617900
5620500
5623600
5626700
5631200
5635600
5640200
5674500
5679200
5687700
5701200
5707000
5712000
5715600
5719500
5723400
5757700
5762300
5767700
5771500
5777900
5804400
5819600
5823600
5828100
5832700
5837100
5847200
5889500
5895200
5901300
5906800
5915500
5921000
5929200
5934300
5976000
5979300
5982600
5987500
5990700
5994500
6000500
6014900
6031300
6039900
6043300
6046100
6048700
6051400
6054200
6057200
6059700
6064200
6136400
6141000
6173300
6180000
6183100
6185600
6188500
6191300
6194400
6197500
6201300
6206200
6253600
6261900
6274500
6295300
6302500
6307200
6315300
6342000
6347600
6357500
6374600
6382000
6385300
6389700
6396800
6405900
6423900
6432200
6436700
6443000
6521000
6526800
6534300
6553700
6569700
6574300
6578000
6586200
6595000
6608900
6616200
6620700
6624300
6628100
6631200
6634400
6638700
6642100
6653300
6660200
6664400
6675100
6699700
6704200
6707700
6710600
6713600
6718400
6725800
6751900
6756300
6759300
6763800
6770900
6850000
6854400
6858500
6866800
6875600
6887500
6900300
6903800
6906600
6913400
6930200
6937800
6942600
6947800
6950900
6956400
6961200
6985000
6997700
7006200
7047400
7051500
7054500
7060500
7069300
7077300
7100200
7105000
7110200
7115400
7120300
7124500
7130900
7146800
7173300
7177600
7181300
7188200
7191500
7196400
7202400
7208400
7232600
7241900
7251400
7254400
7257300
7260700
7265300
7269000
7272600
7276600
7321800
7351100
7355000
7359700
7364400
7368900
7377200
7386800
7460100
7469300
7475100
7482900
7496100
7540200
7548400
7552100
7555200
7560200
7564800
7604400
7628600
7655500
7673500
7708000
7718500
7746100
7748700
7751300
7754200
7757200
7761800
7765600
7792800
7810400
7847400
7865900
7877600
7913800
7931800
7936400
7943200
7945900
7953300
7959900
7985000
7989100
7992200
7995000
7997400
7999700
8002300
8004800
8007800
8043900
8049700
8054000
8058200
8061000
8065300
8068500
8074300
8106200
8112500
8116100
8119300
8122100
8124700
8127800
8132500
8156600
8165100
8168000
8172500
8175200
8197000
8229800
8238300
8242600
8247100
8254000
8284100
8288600
8291900
8294900
8298100
8302200
8306100
8316500
8334400
8341300
8345700
8349100
8355300
8387100
8399600
8405600
8417300
8428900
8446400
8450300
8455800
8460600
8464600
8467500
8470000
8472600
8475800
8478500
8485000
8525800
8529300
8533200
8537300
8544400
8586700
8597600
8630000
8637900
8643100
8646500
8655600
8682400
8687100
8692700
8701300
8731900
8742600
8746400
8755000
8794200
8800200
8806700
8812000
8841100
8845200
8855800
8875400
8884400
8887700
8891700
8896400
8907700
8960800
8964800
8967600
8970400
8972800
8975200
8977700
8980600
8985100
8989500
8992900
9012800
9017300
9025900
9069700
9085600
9110000
9113600
9116300
9119200
9122100
9128200
9142000
9150000
9155200
9158000
9160500
9163000
9165900
9169100
9201200
9204300
9207500
9211500
9215800
9259200
9272400
9277100
9283700
9287900
9292200
9305900
9322400
9327900
9331400
9334300
9337600
9340900
9345100
9349700
9373000
9402400
9407200
9411100
9415500
9419200
9421900
9424600
9427700
9430600
9434000
9437100
9440200
9444500
9449600
9455100
9487700
9494500
9526700
9530100
9534300
9538700
9544000
9570800
9575200
9579900
9585400
9590300
9605700
9612900
9616100
9620400
9622900
9626200
9629200
9633000
9660300
9665100
9668600
9675900
9688300
9698600
9706400
9710300
9716000
9722500
9737900
9742000
9744800
9748700
9753400
9757200
9763600
9772600
9782800
9791300
9797900
9815300
9829300
9834900
9850600
9857000
9895700
9901500
9912600
9930600
9938200
9945600
9967800
9986000
9989600
9993900
10010000


