# repro call number: 0
# mode: 1
# signal: 1
# stimulus file: /extra/setup/oel/stimuli/receptorInfo/gaussModality_co200.dat
# carrier freq (kHz): 5
# stimulus length (msec): 1000
# pause between stimuli (msec): 700
# length of ramp (usec): 1000
# desired firing rate (Hz): 100
# standard deviation (dB): -1
# cut-off frequency (Hz): 200
# repetition number: 0
# duration (msec): 1000
# intensity (dB): 97.3333
6000
9000
12200
15400
21700
24700
29400
35900
41100
44100
57400
60600
79100
83200
89800
96100
99400
102900
106000
120400
128600
164200
171600
181100
184400
187400
193500
199400
212100
218200
224200
232200
235400
239800
245500
256100
259600
267300
288000
301000
305700
309800
320800
324100
327700
338000
342900
356600
360100
363900
370500
373900
379400
385600
400400
403800
408200
418400
448000
453900
457200
461300
465400
473000
484500
490300
504500
510300
513600
522800
531400
549600
553200
558000
566600
570400
586300
593100
601300
615800
625900
637900
643900
657800
667900
673300
691300
704800
713700
717100
726500
736200
741700
755800
760500
771000
779000
787900
791800
795200
801000
808400
815100
818600
832100
835700
840300
855200
863600
874600
888800
892400
902400
908000
919300
923500
935100
939100
956400
960100
966000
980600
987800
997800
1002800
1008200
1013500
1021800
1026000
1036000
1047100
1050600
1062100
1074900
1078800
1083700
1090900
1096000
1099600
1106700
1128400
1141700
1145800
1171700
1175500
1179100
1185600
1191800
1201700
1207900
1217600
1221900
1229900
1256300
1260800
1266600
1281500
1296600
1317900
1324500
1328000
1334200
1339000
1345800
1354400
1358100
1365300
1374000
1380400
1397000
1407800
1418200
1424800
1428600
1432100
1447100
1466900
1485000
1492200
1495600
1500200
1505400
1509900
1516300
1521400
1528700
1535600
1546600
1572500
1576600
1580400
1587400
1595000
1599100
1605500
1612400
1616400
1619900
1624900
1636200
1642100
1651400
1656000
1665200
1678100
1681700
1686000
1691800
1700200
1706300
1711700
1716600
1731700
1739700
1743500
1766300
1770200
1774500
1788600
1793800
1806600
1824300
1827900
1838000
1845300
1850400
1862700
1871100
1881500
1888400
1902500
1909400
1919500
1935000
1938700
1942600
1951600
1957400
1961700
1968500
1974600
1981300
1990800
1995500
2000300
2004200
2029000
2043800
2048900
2062400
2068000
2072100
2075900
2085400
2091500
2097900
2104900
2108400
2111500
2139900
2145700
2149500
2152700
2160700
2164500
2174400
2192500
2200500
2211500
2217700
2224200
2230400
2236800
2247600
2251300
2272700
2278000
2284400
2306500
2310400
2314700
2339300
2347500
2363500
2369200
2372900
2379100
2385100
2390800
2408200
2421300
2432100
2438300
2441900
2446500
2450000
2454700
2472200
2479500
2507500
2511900
2515200
2528000
2532000
2554000
2569900
2582100
2593700
2617800
2621900
2629400
2639700
2643800
2647400
2656200
2661800
2666000
2687700
2692300
2697800
2708200
2715500
2727000
2736100
2741300
2754200
2760100
2781500
2785600
2798900
2806500
2811200
2823300
2838800
2847600
2854500
2860500
2866000
2872800
2885900
2890400
2896500
2901300
2911600
2937800
2948700
2952500
2962900
2968400
2978300
2990000
3006700
3025400
3031400
3049800
3058000
3068300
3072200
3084500
3090400
3096100
3102800
3107600
3116500
3121800
3132500
3137700
3141400
3165600
3174400
3187300
3202800
3214300
3219100
3225900
3246000
3254800
3260500
3264200
3273400
3277100
3287100
3297400
3310000
3321700
3326600
3330200
3334300
3353800
3359100
3364700
3375100
3395000
3401700
3412000
3416700
3422600
3428800
3434300
3439500
3443400
3452600
3462800
3474600
3480700
3492400
3509200
3515700
3523500
3527200
3534700
3540000
3549200
3556800
3567000
3572600
3578400
3589900
3608500
3623100
3631900
3635500
3640700
3652500
3668700
3672500
3680600
3701500
3711700
3725100
3731000
3737300
3744900
3750700
3765800
3771200
3791200
3797100
3800900
3818100
3823700
3841500
3849700
3853500
3857100
3869400
3873100
3878300
3900500
3914000
3923400
3930200
3936100
3940500
3948000
3959100
3966000
3984200
3992800
4003600
4007600
4015600
4022400
4025900
4039000
4054000
4061100
4070100
4091100
4096600
4116000
4128900
4142700
4146700
4163500
4168100
4178100
4185200
4206400
4213300
4216900
4222500
4233900
4238300
4251700
4260000
4270000
4274100
4292000
4300300
4310800
4315600
4339800
4346600
4355500
4361400
4366100
4380400
4396900
4402300
4412600
4417500
4421400
4425300
4433100
4445300
4459500
4473700
4479400
4484700
4489600
4504900
4514700
4518600
4526900
4533500
4539500
4547500
4579100
4587500
4592800
4599200
4604100
4608700
4612200
4622300
4627700
4633100
4642300
4661300
4687300
4692500
4702200
4706100
4716500
4721000
4726200
4730400
4742600
4748300
4752000
4764900
4794500
4798900
4814900
4825800
4836200
4844800
4851400
4858000
4876900
4889500
4893100
4898300
4924200
4938100
4945300
4949300
4961900
4973300
4980600
4984300
4987800
4994200
5003400
5012300
5020900
5029200
5044600
5064300
5071500
5082000
5092300
5098400
5111900
5116000
5119300
5132000
5136700
5143500
5164300
5179200
5194700
5198800
5220300
5225700
5230500
5234100
5261400
5266300
5290800
5296100
5300800
5306600
5310600
5320100
5329300
5338200
5349300
5361000
5369000
5390400
5402200
5410200
5419400
5424100
5438700
5447200
5457900
5465400
5469400
5477500
5481300
5507000
5515400
5527200
5532600
5543400
5550200
5557000
5563600
5567600
5571400
5577900
5587000
5602800
5609600
5619000
5629900
5644500
5650200
5664500
5668400
5671800
5683800
5691800
5698500
5705300
5710400
5716400
5739800
5749100
5756500
5771300
5783400
5787500
5794000
5798500
5815300
5819900
5826900
5834400
5864300
5871400
5879400
5899300
5904400
5909900
5916400
5925700
5934400
5941200
5947500
5994800
5998500
6006600
6014400
6033600
6047400
6057000
6063800
6075900
6094800
6108800
6113800
6118500
6125900
6132000
6141500
6147300
6153200
6157300
6169600
6176100
6187500
6193400
6203300
6209000
6214100
6219400
6249500
6259200
6267800
6290900
6302300
6306300
6312500
6322500
6326800
6330600
6341700
6347300
6362000
6373800
6380800
6393700
6400800
6406200
6417300
6422200
6427900
6438100
6445600
6451600
6460800
6472000
6487000
6501900
6507300
6514600
6525200
6543500
6551300
6586900
6596700
6608000
6637000
6642900
6652100
6658300
6670000
6680400
6687800
6693900
6699700
6708500
6715500
6721100
6735900
6740200
6750900
6754800
6769100
6777300
6784000
6799600
6808700
6826600
6834400
6845700
6859300
6869600
6891500
6902400
6911000
6925600
6929700
6936800
6942700
6949900
6958500
6970400
6974300
6983800
6987500
6998100
7012200
7019900
7028700
7042200
7068900
7073900
7079900
7098000
7113900
7122200
7126600
7132700
7139200
7158000
7187400
7193800
7203800
7208800
7223900
7227900
7247200
7251600
7260200
7268000
7273900
7279400
7311100
7320000
7328600
7339600
7359100
7379400
7394500
7406400
7434000
7443100
7470200
7490500
7496600
7501300
7506600
7512100
7524900
7529000
7538700
7547900
7557100
7581100
7585100
7593000
7602900
7627900
7631600
7651500
7655800
7664900
7669800
7681700
7688100
7716800
7720800
7729500
7734700
7738500
7745800
7750500
7768900
7774700
7782300
7788900
7799700
7804400
7811700
7818500
7833200
7842900
7858500
7867600
7872800
7877600
7888700
7898900
7908100
7914000
7918400
7943400
7952300
7960200
7971900
7975800
7996600
8010600
8016500
8029700
8038700
8047800
8059600
8064200
8076600
8088900
8092600
8104100
8116000
8125800
8130800
8141500
8162600
8172800
8183600
8188100
8193400
8204900
8209000
8213200
8225600
8233400
8248700
8256200
8274500
8289600
8293500
8314700
8336900
8344800
8353300
8357200
8365000
8393200
8399500
8411300
8421200
8428400
8433500
8448000
8455400
8470700
8484800
8490400
8494800
8520500
8524100
8528700
8539200
8561200
8569800
8575800
8580300
8583900
8594000
8605000
8620700
8624900
8646600
8656200
8663000
8685400
8698800
8702800
8711100
8720400
8731300
8736500
8748000
8758300
8771700
8777800
8791100
8800400
8815500
8820900
8830900
8842400
8858700
8868000
8875200
8884300
8902200
8919100
8923000
8937600
8945900
8949700
8969400
8973400
8984100
8989300
8995200
9016400
9025100
9032800
9045900
9049600
9085800
9103200
9108300
9119100
9131600
9135400
9158900
9162800
9170100
9174900
9181700
9196000
9205400
9210200
9221900
9230200
9234100
9248600
9264900
9279700
9302600
9323100
9333700
9344400
9362400
9377200
9382300
9386300
9390700
9398100
9409400
9419100
9426500
9432700
9436300
9442200
9472300
9481400
9496300
9500500
9506200
9512900
9516900
9521500
9531800
9562700
9573700
9579400
9583200
9589700
9608400
9621800
9625700
9630200
9636300
9640500
9645700
9652600
9656700
9681400
9689900
9712600
9719100
9724900
9731800
9744300
9765700
9769700
9774000
9777300
9781000
9786800
9791100
9798400
9802700
9806300
9819600
9823800
9841200
9851700
9865100
9869200
9876100
9883000
9892200
9897500
9904100
9909600
9915100
9929700
9942400
9948300
9972900
9976900
9989500
10005600


