# repro call number: 0
# mode: 3
# signal: 1
# stimulus file: /extra/setup/oel/stimuli/receptorInfo/gauss_st6_co200.dat
# carrier freq (kHz): 3.53553
# stimulus length (msec): 1000
# pause between stimuli (msec): 700
# length of ramp (usec): 1000
# desired firing rate (Hz): 90
# standard deviation (dB): 6
# cut-off frequency (Hz): 200
# repetition number: 0
# duration (msec): 1000
# intensity (dB): 80.8621
4500
6700
9300
11800
22700
25200
28400
36300
45000
49700
57700
60100
66900
74800
78300
80800
84800
91000
103900
126400
134700
143900
146200
156400
171800
181400
197300
200400
207700
211400
216700
219400
224900
237900
252600
259200
267100
283700
287300
298300
302900
305500
335100
342400
350400
359700
362500
367300
370500
384800
395000
397500
403100
410300
416400
425600
428200
438900
454600
459800
462400
467500
472400
478000
480600
487000
495500
502700
513200
535100
546100
549400
553300
556000
562200
577600
582200
593400
604700
609400
613400
615900
625200
630400
657800
671300
674200
681300
688800
702600
714300
717000
722300
727200
738500
740900
757300
788400
791000
799600
810900
820700
826800
833200
842000
847900
855200
857900
863900
866800
891200
901700
905200
924400
927800
935900
938700
956400
959400
965700
976800
1000500
1005000
1022500
1028200
1030700
1054200
1064400
1071200
1077800
1080400
1085800
1088500
1093800
1111300
1134300
1142100
1150700
1153500
1157200
1174400
1184600
1189400
1196700
1207500
1210500
1221200
1233100
1238300
1242800
1245800
1254000
1256900
1266500
1274600
1283200
1288700
1294400
1297100
1304100
1310100
1312800
1336600
1343300
1364500
1377200
1383700
1391500
1397700
1404400
1410100
1412700
1418000
1429400
1448600
1468500
1475900
1478400
1485800
1488600
1498400
1516000
1530100
1540900
1544200
1547700
1552400
1585900
1591400
1593900
1608000
1625800
1633600
1637800
1640300
1654800
1660100
1663600
1676400
1682700
1691500
1698900
1703900
1706700
1719200
1726300
1736800
1741600
1754700
1757600
1778800
1785100
1812400
1815600
1825100
1831500
1835900
1841200
1854300
1875500
1888600
1897600
1912400
1932700
1935300
1947600
1950800
1958700
1969600
1999700
2014500
2017200
2031100
2033900
2045800
2055200
2065500
2076400
2082000
2084800
2097900
2103500
2108400
2113100
2115700
2133100
2135800
2161500
2169100
2171900
2180100
2183000
2191300
2211100
2230500
2234700
2243600
2255100
2258300
2264300
2276800
2280000
2282500
2292700
2301300
2315800
2319100
2338700
2344700
2368900
2371600
2375600
2381800
2399800
2402800
2411000
2432000
2434800
2440400
2452300
2458400
2479100
2491200
2495400
2498500
2509300
2520800
2525600
2551600
2561100
2576000
2581200
2586900
2592500
2598300
2601200
2611400
2614100
2624300
2627000
2637400
2647900
2661600
2690900
2696000
2698600
2712000
2723700
2737600
2740300
2748600
2754800
2766500
2774400
2795300
2807200
2819800
2822800
2835600
2840500
2844500
2847600
2858800
2877000
2886600
2897000
2912500
2930000
2935700
2938400
2941400
2945700
2955600
2961300
2967200
2982400
2994800
3012900
3024200
3027100
3036800
3052800
3060700
3065300
3087700
3090400
3096300
3111600
3120700
3131800
3135100
3151500
3162100
3165300
3186000
3188900
3198000
3210500
3213300
3227500
3233700
3236400
3246200
3260000
3269100
3276900
3283600
3288400
3295000
3321100
3337100
3348300
3365500
3375400
3383500
3390000
3401100
3419000
3422500
3428900
3448200
3453900
3468100
3472600
3480300
3492000
3494800
3504600
3536300
3539200
3543500
3552700
3569900
3577200
3586400
3594500
3608400
3618300
3636300
3641500
3648200
3670800
3674700
3685200
3687900
3709600
3712800
3743400
3748700
3753900
3766000
3770200
3785700
3792600
3801200
3806800
3809500
3818100
3832200
3835400
3838600
3842700
3859100
3876800
3884000
3889600
3898100
3901500
3919300
3929700
3945600
3954300
3972500
3993300
4003700
4006400
4010000
4042400
4055900
4062800
4065600
4072500
4076400
4083900
4087300
4120500
4130300
4168600
4175200
4185700
4189700
4201600
4215700
4221800
4225600
4228100
4231600
4237300
4248800
4262600
4279600
4292100
4296500
4299300
4313000
4315800
4322000
4326300
4331600
4370600
4391000
4394200
4401100
4405800
4423700
4429400
4440900
4445400
4452200
4462400
4468100
4483700
4488800
4505800
4508700
4522800
4533000
4538600
4556000
4562600
4575400
4587400
4593600
4598300
4625900
4638400
4650000
4663400
4670700
4707500
4712700
4715500
4726900
4738400
4741300
4753800
4760400
4776200
4784400
4793800
4800800
4807000
4809800
4822100
4832800
4849800
4866700
4877200
4881400
4884100
4894000
4899000
4902000
4908000
4923500
4927000
4932400
4960700
4979100
4984900
4989000
4995500
5000000
5002800
5016700
5023800
5030800
5033900
5056400
5059100
5072400
5086100
5088800
5092200
5095600
5110800
5130100
5136900
5143400
5154700
5159300
5165000
5173400
5181100
5204100
5210500
5216500
5223100
5241400
5244600
5256100
5263700
5275800
5284100
5287100
5293800
5300700
5324000
5333100
5347100
5353700
5362500
5365500
5370500
5384500
5394800
5420000
5431800
5436500
5439300
5447900
5452800
5458100
5468700
5475000
5480000
5494800
5497700
5510800
5517200
5523800
5528400
5531100
5539700
5558600
5565800
5574200
5621500
5631800
5639400
5643600
5649100
5652800
5660200
5677600
5685600
5688800
5703200
5706000
5729100
5753700
5756400
5760500
5763500
5769500
5772500
5782900
5793200
5800500
5807100
5826100
5831800
5835000
5841800
5848100
5850900
5860400
5869900
5884200
5905900
5916400
5920700
5925400
5936900
5959000
5962500
5991900
6006300
6028600
6034500
6038500
6051900
6056300
6063100
6065900
6072000
6092800
6095700
6100900
6108100
6119800
6142600
6160100
6180900
6187400
6190400
6193200
6198200
6204600
6207500
6218700
6221400
6246300
6254700
6267900
6272400
6275000
6294700
6297500
6312000
6314700
6334200
6346700
6370000
6380500
6399700
6414800
6424000
6428100
6435700
6441800
6452100
6465000
6470300
6473600
6477200
6502700
6506000
6522600
6539900
6548500
6555900
6559600
6563600
6569100
6575900
6580700
6597300
6612300
6632800
6640200
6653900
6677400
6686500
6693400
6708800
6719000
6732400
6763100
6767100
6781100
6786800
6794500
6800900
6811600
6814600
6831400
6837700
6840600
6850100
6863400
6870400
6877200
6893600
6896500
6907100
6929600
6934400
6940700
6960300
6979400
6982200
7001700
7007100
7010300
7015700
7021400
7028200
7059600
7063500
7068000
7074800
7089500
7106900
7140100
7151500
7157800
7170500
7173300
7192600
7201900
7209500
7228500
7231600
7236300
7242500
7245500
7250100
7256400
7260200
7278600
7293300
7300400
7313700
7323400
7330300
7340800
7349800
7361300
7370300
7373200
7387900
7405500
7417900
7421100
7427100
7448700
7460400
7465000
7478500
7485700
7497500
7502400
7513800
7518700
7524000
7531700
7539500
7545500
7551400
7557000
7562700
7576200
7587500
7591600
7599100
7619200
7627000
7638900
7642100
7659200
7665600
7675200
7680800
7688100
7699800
7706000
7713000
7720300
7725700
7745400
7752800
7781200
7785100
7790800
7817300
7821300
7824200
7829200
7854500
7858900
7862100
7864800
7871200
7901300
7911600
7915900
7918900
7932500
7942100
7945800
7956600
7965800
7973700
7982700
8012900
8022400
8025200
8052200
8081000
8087900
8091300
8103400
8118800
8137100
8142700
8150500
8159400
8169200
8174300
8194800
8204000
8207100
8212200
8226600
8230300
8239900
8245500
8248500
8272300
8292600
8295400
8303900
8308000
8311100
8324000
8345700
8351500
8357500
8367900
8385600
8394300
8397300
8411100
8416800
8422100
8456800
8476700
8480000
8483200
8496600
8499300
8502000
8522500
8542800
8557700
8567400
8589600
8592400
8618300
8623700
8638000
8656800
8665100
8668000
8678900
8690700
8693900
8699800
8706500
8713000
8722900
8731200
8743300
8749600
8754300
8764900
8779700
8782600
8794400
8814900
8822400
8825200
8829700
8839900
8852900
8860700
8870700
8888600
8916200
8922300
8928500
8934300
8944400
8959500
8963400
8969400
8995700
9003100
9006100
9016900
9047100
9050000
9063900
9068300
9071100
9080900
9097500
9115500
9118500
9133000
9148800
9175600
9179900
9182600
9194000
9197600
9205800
9213700
9234200
9237500
9247900
9256800
9264800
9274400
9285000
9291000
9296500
9306200
9309100
9338400
9347800
9368400
9371300
9395700
9406700
9410500
9419400
9422400
9434100
9448900
9452700
9461300
9464800
9474800
9478000
9491600
9515300
9531800
9554700
9561700
9576900
9586200
9597200
9601900
9611600
9616900
9628000
9633400
9643200
9647300
9663200
9683700
9691500
9700900
9708400
9727400
9730200
9736300
9765200
9777800
9793600
9797400
9821300
9832600
9846400
9858500
9864000
9873900
9896300
9910600
9913500
9921800
9926900
9932700
9943500
9954000
9956900
9963500
9976000
9978900
9997000
10000300


