# repro call number: 0
# mode: 1
# signal: 1
# stimulus file: /extra/setup/oel/stimuli/receptorInfo/gaussModality_co200.dat
# carrier freq (kHz): 3.5
# stimulus length (msec): 1000
# pause between stimuli (msec): 700
# length of ramp (usec): 1000
# desired firing rate (Hz): 100
# standard deviation (dB): -1
# cut-off frequency (Hz): 200
# repetition number: 0
# duration (msec): 1000
# intensity (dB): 87.25
5300
8100
11000
13800
20300
23200
32700
39500
42600
49300
56500
59200
71900
77800
82400
89500
95100
98500
102700
108900
119900
126600
154200
164000
171700
181100
185100
188700
193400
199100
210300
216900
224300
231800
234700
239600
244600
256400
259800
267800
282200
295900
302000
307000
310600
320300
324000
327300
341000
344500
355600
359200
363400
367700
371700
378000
384500
400000
407200
418000
433800
447500
452900
455900
461300
472700
483300
489600
503600
509700
515700
522600
530100
548200
551600
558300
566400
570600
579000
592800
602000
614300
624900
635700
640200
657100
666400
670500
678900
684800
693200
703000
707100
714000
725500
736100
746300
753800
757100
761500
770400
777700
786600
790800
794200
799500
806800
814500
823300
831200
834700
839300
854500
863300
873900
888200
891500
901000
905500
911300
916900
921400
937700
955600
959100
965400
980100
987000
1001400
1008400
1014900
1022000
1034600
1046600
1060200
1074400
1078200
1082900
1090300
1094700
1099200
1105700
1127900
1140800
1144000
1148200
1170400
1173900
1177000
1183700
1200300
1207800
1217100
1229700
1243200
1255900
1261400
1265600
1280300
1296500
1312800
1318100
1324000
1327700
1333300
1339300
1344900
1353600
1358900
1366500
1374300
1380100
1396400
1407900
1418300
1423900
1427600
1430900
1446400
1466500
1484300
1492800
1499500
1504700
1508800
1515300
1521100
1533900
1545900
1563000
1570300
1574700
1578200
1581900
1586100
1594400
1604600
1610200
1614200
1618700
1625600
1641200
1653800
1662300
1667600
1678400
1681600
1685800
1700000
1705200
1714400
1718400
1730800
1739800
1762200
1768300
1771700
1779800
1788600
1805500
1823100
1826800
1830200
1845600
1851900
1860200
1871300
1887500
1898000
1903100
1908600
1919200
1934800
1939700
1950400
1956800
1961000
1968300
1974800
1989400
1995500
2002100
2014000
2028700
2043400
2047900
2062200
2068300
2071800
2090400
2097500
2104400
2107800
2139300
2144800
2148600
2151900
2160600
2164200
2174400
2179800
2185000
2200100
2216800
2223800
2230100
2235200
2247800
2252000
2266300
2272900
2277500
2284500
2306200
2311800
2332800
2339100
2347400
2362100
2368400
2378100
2385100
2390200
2406800
2419500
2427300
2432200
2437900
2441200
2446200
2454400
2465600
2496100
2507000
2511000
2514000
2527400
2550200
2570000
2581700
2593200
2606500
2617600
2627600
2638900
2643200
2658900
2665000
2681500
2687000
2702300
2707900
2715000
2726400
2734200
2739900
2748200
2755200
2759600
2780800
2798000
2806300
2810300
2821900
2838200
2846500
2853900
2860500
2865700
2872300
2884500
2889600
2896100
2901100
2911200
2936200
2948100
2951500
2961500
2967400
2976500
2980200
2989100
2994300
3006700
3025000
3031800
3049100
3057900
3069000
3083800
3094700
3102000
3106700
3115700
3120500
3130800
3136400
3164300
3173700
3186400
3202700
3210900
3214900
3218400
3225800
3243400
3247500
3255500
3260500
3272000
3275600
3287000
3296600
3310000
3321400
3325400
3328600
3332500
3354400
3363800
3374600
3377700
3394100
3400800
3412300
3416600
3422000
3433600
3441400
3451800
3462500
3474000
3492200
3508500
3515500
3522300
3526300
3538400
3548700
3556100
3571300
3577800
3589500
3607300
3616200
3622800
3631100
3634400
3640000
3652200
3663700
3669200
3673800
3692900
3700500
3709900
3724900
3731000
3737200
3742200
3749900
3765400
3770600
3783900
3790500
3796600
3817700
3822200
3840900
3849500
3853900
3868700
3872100
3877900
3899800
3914500
3921900
3930200
3935700
3940400
3952700
3959600
3966900
3978600
3992000
4002700
4006200
4015100
4022000
4038000
4053700
4063200
4090700
4096200
4113800
4127900
4138500
4143000
4159700
4164700
4177700
4184300
4205400
4212800
4216800
4233600
4237700
4252500
4259400
4269100
4273400
4285800
4292200
4304200
4309900
4315500
4323300
4337900
4344900
4354500
4360700
4365800
4380100
4396200
4411900
4417000
4420700
4439000
4447300
4459900
4472900
4483200
4488800
4503900
4514500
4518300
4533500
4546000
4567200
4575500
4586800
4592400
4598600
4603900
4608300
4628700
4632500
4660900
4673800
4685100
4689900
4701800
4717900
4725600
4730400
4742400
4748200
4758700
4764900
4787000
4797100
4814000
4825300
4838700
4844600
4857700
4877000
4889300
4893500
4897700
4924200
4936700
4940600
4945900
4950900
4961100
4972300
4980800
4984600
4988000
4995000
5003200
5012800
5020600
5029800
5043500
5063800
5070700
5090400
5097200
5112100
5115900
5132300
5136600
5139800
5143000
5162700
5178900
5194400
5202600
5224700
5230000
5258600
5266200
5274300
5286600
5294200
5299900
5307600
5320700
5329200
5336100
5348100
5360800
5368500
5390200
5401200
5418800
5431100
5444600
5453500
5464200
5468600
5477300
5480700
5506000
5514500
5526500
5532600
5544300
5557000
5563800
5567500
5577900
5587400
5602100
5608700
5618900
5628100
5636300
5643700
5650200
5666600
5669900
5682600
5693100
5699000
5708900
5738800
5742100
5756700
5769900
5783000
5787700
5798900
5813300
5819400
5826300
5833800
5860500
5864700
5870700
5898200
5904100
5909700
5919200
5926100
5939900
5947200
5967600
5994500
5998100
6005400
6009200
6015400
6032700
6046700
6063500
6088600
6094400
6107800
6113300
6130400
6140200
6151900
6156000
6169500
6175200
6187200
6193800
6207400
6213500
6248400
6257900
6266500
6290200
6301200
6304900
6325600
6329800
6345400
6361500
6373400
6378900
6393600
6401000
6405800
6417600
6421800
6427600
6437900
6460300
6486300
6495500
6500600
6507600
6524600
6541700
6550900
6572300
6586700
6591000
6596400
6607500
6633700
6637700
6643300
6650600
6668200
6680700
6687300
6693600
6705900
6714600
6720500
6737000
6750400
6753900
6768000
6776400
6783500
6799300
6807000
6819200
6825800
6832900
6858700
6869900
6883900
6911000
6925400
6935500
6942100
6948900
6957700
6968900
6972800
6982800
6986500
7011200
7019400
7022900
7028500
7040100
7044000
7062900
7068300
7073200
7079500
7098100
7114000
7121600
7126000
7132400
7138700
7157000
7168000
7186100
7193000
7202000
7207500
7222700
7226100
7229600
7246300
7249900
7259900
7268300
7273300
7279200
7311300
7322400
7330300
7342000
7358500
7372200
7379600
7394400
7405600
7433100
7442100
7461900
7470100
7489800
7499700
7508000
7512600
7524200
7545900
7556200
7578400
7582400
7591900
7602300
7605800
7627100
7631300
7650300
7655500
7659100
7668800
7681300
7687600
7709800
7716600
7733000
7749400
7767800
7774700
7781800
7788100
7799500
7817600
7827500
7842600
7856000
7863000
7871300
7877200
7888300
7898900
7907600
7914200
7926300
7942600
7954000
7960300
7971000
7974500
7998400
8015100
8028000
8040000
8048400
8060700
8073900
8078500
8089600
8093100
8103400
8115000
8124500
8141500
8157300
8162600
8166300
8172200
8183700
8199000
8204800
8209100
8224000
8232700
8247300
8251300
8256500
8274000
8281000
8289400
8299100
8307300
8315500
8337200
8345100
8352200
8365800
8392000
8398700
8406200
8413400
8426500
8432200
8447600
8459900
8476000
8483700
8489800
8494000
8520400
8528700
8538700
8542200
8559600
8564800
8570700
8576800
8580800
8595800
8603800
8620100
8625100
8646300
8655300
8662600
8684900
8692700
8698900
8702900
8709700
8713200
8725200
8731500
8736100
8754800
8770800
8778000
8790800
8799100
8805400
8820100
8830300
8842500
8857900
8867100
8874600
8884100
8895900
8901800
8905400
8913400
8920300
8924300
8936900
8942900
8947300
8968700
8972000
8987800
8993800
9016200
9022800
9032300
9045700
9069900
9085200
9088500
9102700
9107900
9118400
9130900
9134900
9157800
9161600
9173700
9182300
9194000
9204800
9210000
9221300
9229100
9248900
9252500
9264300
9279000
9286900
9302600
9316700
9323000
9333400
9344000
9352800
9362500
9378800
9385300
9390100
9406900
9410500
9417900
9426100
9433000
9442000
9446000
9471100
9481100
9496900
9507000
9512700
9519700
9531200
9558800
9572700
9578800
9582300
9607200
9621300
9629300
9638400
9651700
9680400
9690800
9709000
9713100
9724200
9731100
9743600
9764600
9772800
9776100
9784700
9789200
9800800
9818700
9839500
9850900
9864000
9874900
9881400
9890000
9896900
9908700
9916100
9930000
9941900
9948000
9972000
9975700
9989000


