# repro call number: 0
# mode: 1
# signal: 1
# stimulus file: /extra/setup/oel/stimuli/receptorInfo/gaussModality_co200.dat
# carrier freq (kHz): 5
# stimulus length (msec): 1000
# pause between stimuli (msec): 700
# length of ramp (usec): 1000
# desired firing rate (Hz): 100
# standard deviation (dB): -1
# cut-off frequency (Hz): 200
# repetition number: 0
# duration (msec): 1000
# intensity (dB): 91.6667
6400
9400
12600
19500
22700
25500
30100
34400
40800
43800
48600
57500
60500
73300
78200
83100
90200
96600
99700
102900
106200
109900
117200
121100
128300
164400
171900
177700
182000
186200
193600
199200
211500
219300
224200
232000
235200
240100
256700
259900
267300
288000
297300
301500
306500
310600
321100
324300
327500
338800
343400
350300
357200
363900
368100
371800
375000
379600
385500
400800
407300
415200
419400
448900
454600
457800
462400
469700
484200
488200
503800
507000
511000
516200
523100
531400
550100
553500
558800
567600
571100
586500
593700
600300
604600
615900
626100
637200
641500
668500
672600
686800
695200
704700
710500
715100
726900
730500
741300
748500
756000
760400
772300
778700
786800
791300
794800
806300
815600
819300
832400
836000
840300
856000
864400
875000
889700
893200
902600
906200
911600
920600
924500
936300
939700
956500
960300
966600
981500
988200
998400
1003100
1008900
1012600
1022100
1028700
1036500
1042300
1047800
1061900
1075200
1078700
1083800
1089800
1095900
1100000
1105300
1118300
1129000
1142800
1146200
1150300
1172200
1176100
1179700
1186900
1192600
1203200
1208900
1218000
1225100
1231300
1255900
1261300
1266900
1275200
1281700
1297500
1317600
1325200
1328800
1334300
1338100
1346800
1354600
1359400
1366500
1375000
1381400
1397000
1407800
1419500
1425400
1428800
1432200
1448500
1468200
1485700
1493500
1500400
1505900
1510000
1513400
1521200
1529700
1547300
1569500
1575600
1579800
1584000
1588400
1596000
1604600
1611600
1615600
1619400
1626300
1636000
1642600
1651100
1656600
1663500
1668200
1675100
1680200
1683800
1687400
1692400
1701000
1706600
1713000
1717700
1732200
1740500
1744700
1766000
1770000
1790200
1794200
1801800
1807000
1825400
1828900
1839200
1846900
1851300
1861800
1872400
1880600
1888600
1899300
1903800
1910400
1920200
1936100
1940100
1952000
1957800
1961600
1968800
1975000
1982500
1991900
1996800
2003600
2013500
2030000
2048300
2063200
2068300
2072600
2076400
2085600
2091600
2097600
2105800
2109500
2140700
2145900
2150100
2153900
2161600
2165300
2175000
2180400
2200400
2205500
2217800
2230700
2248800
2252400
2267900
2273500
2278300
2281900
2285600
2307400
2313600
2334500
2341300
2348400
2363500
2369100
2372900
2385500
2390800
2398800
2408600
2420800
2432300
2438000
2441600
2447200
2455000
2468500
2473000
2480100
2497900
2508100
2512700
2528700
2555000
2570900
2577800
2583100
2595100
2607300
2617400
2621000
2629000
2641100
2644900
2658100
2665500
2683200
2688400
2694800
2706300
2710300
2714900
2727200
2736500
2741400
2754500
2760000
2782000
2790200
2799500
2807600
2811800
2824600
2839700
2847200
2854900
2860500
2866700
2878700
2885400
2890900
2896700
2901200
2912100
2949100
2953000
2963100
2968600
2973300
2979300
2983400
2990600
3007700
3026400
3032100
3050700
3058400
3070300
3085200
3096500
3102500
3107800
3117000
3123000
3131300
3138000
3142100
3166000
3175000
3181000
3188000
3203300
3213300
3218900
3222800
3227400
3243300
3248300
3256100
3261600
3273300
3277300
3287800
3294500
3300300
3311400
3317900
3323200
3327600
3333800
3360200
3364900
3375900
3395600
3402000
3412800
3417200
3423000
3428800
3439200
3443100
3453300
3463000
3481100
3493400
3499700
3510200
3516300
3524000
3532000
3540100
3549900
3557900
3567500
3572700
3578800
3590600
3608500
3618400
3625100
3632700
3636800
3644700
3652900
3669800
3674100
3682500
3694500
3702400
3712200
3725800
3732100
3738400
3746800
3751400
3766700
3772000
3785200
3797000
3801200
3819600
3824200
3842800
3850700
3854800
3863100
3871000
3882500
3901500
3915400
3925000
3931200
3937100
3941500
3959800
3966700
3979300
3985300
3993300
4004400
4015800
4022900
4026900
4039600
4049600
4055100
4064800
4071200
4092100
4097400
4115700
4129900
4143300
4164700
4170400
4185600
4207300
4213900
4223200
4234200
4238500
4251900
4260100
4270000
4274200
4292500
4301400
4310600
4316000
4320100
4345300
4355400
4361100
4366700
4381100
4396300
4400200
4404700
4412900
4418600
4424400
4432100
4441100
4460500
4473800
4484100
4489800
4505100
4515500
4524100
4533500
4539000
4547600
4578900
4588400
4594200
4599300
4605200
4609900
4628200
4633700
4662000
4675500
4687400
4691400
4702700
4707100
4717900
4726400
4731600
4743900
4748500
4759300
4766100
4795700
4799700
4815800
4825800
4837800
4844600
4849000
4853300
4859300
4877800
4890100
4898800
4924600
4937900
4946600
4951700
4962700
4973900
4981600
4986200
4995200
5005400
5013100
5029300
5045500
5064500
5072800
5082600
5091800
5098600
5112600
5116700
5133000
5137700
5145200
5179600
5195400
5225700
5231300
5265700
5274300
5290100
5296500
5301200
5307700
5319700
5326800
5331500
5349300
5361000
5369700
5391800
5402600
5409800
5419400
5445100
5449200
5455200
5459600
5465900
5470500
5478200
5507300
5515900
5527300
5534200
5546700
5557400
5564400
5577200
5587200
5593700
5603200
5609900
5620000
5628900
5637000
5644600
5649200
5665200
5683900
5692000
5699800
5706200
5711200
5716000
5740000
5757900
5771400
5784100
5795600
5800100
5816100
5820900
5827600
5865200
5871300
5899100
5910500
5917500
5926300
5934700
5941400
5947900
5995600
6006300
6015300
6033800
6047700
6057800
6065100
6076000
6089600
6108200
6112300
6126700
6132100
6141000
6147300
6153500
6170800
6177100
6188600
6195300
6203900
6209000
6213800
6221400
6250500
6259100
6268100
6291900
6302600
6310300
6327000
6335700
6347100
6362700
6369300
6379800
6394600
6401700
6406200
6419000
6423400
6428500
6438800
6446300
6451700
6461200
6488000
6502500
6507700
6515400
6526200
6544500
6551600
6587300
6591400
6597000
6608100
6637200
6643300
6653300
6658800
6670200
6681900
6688100
6700000
6705700
6715500
6721600
6736500
6742600
6751300
6769000
6776800
6784700
6800000
6808500
6820500
6826800
6834500
6845700
6859800
6870700
6912100
6927300
6936800
6942800
6950000
6959600
6971500
6983100
6999300
7013400
7020900
7029700
7042100
7046300
7069000
7074700
7080600
7099300
7114500
7123300
7127700
7134100
7139400
7158400
7168300
7193900
7199600
7204300
7208800
7223600
7247200
7260900
7268600
7274900
7280200
7312600
7319600
7329500
7340400
7355100
7360000
7364200
7379700
7395500
7406700
7435400
7444200
7470600
7491200
7500800
7504700
7511400
7525100
7529000
7540600
7557700
7581100
7593000
7603500
7629000
7633300
7650900
7655800
7663900
7670000
7682300
7688900
7709900
7717700
7733800
7746200
7751200
7762800
7769700
7774600
7782700
7788700
7800700
7818300
7822200
7832900
7837500
7843300
7858200
7868500
7873400
7878800
7889500
7899300
7909100
7915400
7944000
7951200
7960700
7972700
7998100
8010900
8017300
8029300
8039400
8049800
8058400
8062800
8073900
8078700
8089100
8096300
8104300
8115700
8125500
8138000
8143300
8162000
8166000
8173100
8184200
8190700
8195700
8205100
8226100
8233700
8246100
8250400
8256400
8275000
8288200
8299200
8307100
8314800
8321500
8332800
8338000
8345700
8352900
8357100
8363100
8367500
8379900
8393000
8399600
8406100
8411200
8425800
8430700
8435000
8444800
8449300
8454900
8461400
8470300
8477600
8485200
8490900
8496300
8506800
8520100
8529500
8534900
8540400
8545100
8560500
8565700
8570700
8576700
8594900
8605600
8616700
8622100
8647100
8657100
8663600
8685700
8699500
8711000
8720700
8726900
8732100
8737100
8743300
8750900
8757700
8771600
8778000
8791000
8799900
8816100
8821600
8831700
8838200
8843600
8858900
8866900
8871500
8876800
8884500
8902800
8907700
8921400
8938700
8943300
8947700
8969200
8988300
8995500
9017100
9023600
9033000
9046400
9072700
9086600
9105100
9120200
9131800
9153600
9160200
9169600
9175500
9183000
9195900
9200600
9206100
9210600
9222100
9229300
9243200
9248900
9253500
9265300
9269700
9280300
9284700
9303300
9323800
9333900
9344900
9354400
9362500
9378700
9384400
9391100
9399000
9409200
9419100
9427300
9434200
9443500
9472900
9479700
9484200
9493700
9499100
9506500
9513300
9521300
9532700
9563400
9575900
9580300
9590400
9609500
9622700
9630100
9636000
9640700
9646600
9653200
9681600
9690700
9714400
9720000
9725600
9732100
9745000
9766600
9774600
9784300
9790400
9802300
9817000
9821500
9852400
9866600
9877100
9883800
9897400
9904300
9909900
9929500
9943100
9948400
9973500
9990200


